File:              	C:\Qtrac\Data\Daniel M Sørensen\MScan multicentre study\Data from centres\Edmonton\MSCC00226B.QZD
Name:              	CA.EDM.NC.5.1
Protocol:          	MSCAN-R2
Date:              	26/2/20
Start time:        	12:01:55
Age:               	53
Sex:               	F
Temperature:       	32.5
S/R sites:         	Median Wr-APB
NC/disease:        	NC
Operator:          	KJ
Comments:
M-SCAN DATA (8.3-2.4m)
Scanpts: 13, 17, 270, 275
Stim. (mA)     	Amp. (mV)
MS.1           	17             	10.582
MS.2           	17             	10.574
MS.3           	17             	10.586
MS.4           	17             	10.599
MS.5           	17             	10.558
MS.6           	17             	10.605
MS.7           	17             	10.603
MS.8           	17             	10.599
MS.9           	17             	10.607
MS.10          	17             	10.611
MS.11          	17             	10.615
MS.12          	17             	10.627
MS.13          	17             	10.619
MS.14          	17             	10.631
MS.15          	17             	10.631
MS.16          	17             	10.635
MS.17          	17             	10.617
MS.18          	17             	10.586
MS.19          	17             	10.562
MS.20          	17             	10.625
MS.21          	17             	10.613
MS.22          	17             	10.578
MS.23          	17             	10.635
MS.24          	16.932         	10.621
MS.25          	16.897         	10.639
MS.26          	16.865         	10.623
MS.27          	16.83          	10.637
MS.28          	16.797         	10.586
MS.29          	16.762         	10.596
MS.30          	16.73          	10.665
MS.31          	16.698         	10.643
MS.32          	16.663         	10.568
MS.33          	16.63          	10.578
MS.34          	16.597         	10.596
MS.35          	16.562         	10.596
MS.36          	16.53          	10.556
MS.37          	16.497         	10.391
MS.38          	16.465         	10.552
MS.39          	16.432         	10.413
MS.40          	16.4           	10.504
MS.41          	16.365         	10.625
MS.42          	16.333         	10.49
MS.43          	16.3           	10.484
MS.44          	16.267         	10.413
MS.45          	16.235         	10.544
MS.46          	16.202         	10.286
MS.47          	16.17          	10.351
MS.48          	16.137         	10.323
MS.49          	16.108         	10.337
MS.50          	16.075         	10.216
MS.51          	16.042         	9.978
MS.52          	16.01          	10.105
MS.53          	15.977         	10.01
MS.54          	15.945         	9.932
MS.55          	15.915         	9.986
MS.56          	15.882         	9.668
MS.57          	15.85          	9.477
MS.58          	15.82          	9.672
MS.59          	15.787         	9.67
MS.60          	15.755         	9.96
MS.61          	15.725         	9.501
MS.62          	15.693         	9.561
MS.63          	15.662         	9.65
MS.64          	15.63          	9.612
MS.65          	15.6           	9.215
MS.66          	15.568         	9.63
MS.67          	15.537         	9.269
MS.68          	15.505         	9.007
MS.69          	15.475         	9.193
MS.70          	15.445         	9.207
MS.71          	15.412         	9.491
MS.72          	15.382         	9.642
MS.73          	15.352         	9.32
MS.74          	15.32          	9.034
MS.75          	15.29          	8.995
MS.76          	15.26          	9.124
MS.77          	15.23          	8.707
MS.78          	15.197         	8.375
MS.79          	15.167         	8.524
MS.80          	15.137         	8.544
MS.81          	15.108         	8.447
MS.82          	15.077         	8.212
MS.83          	15.047         	8.363
MS.84          	15.017         	8.327
MS.85          	14.987         	8.254
MS.86          	14.957         	7.962
MS.87          	14.927         	8.184
MS.88          	14.898         	7.881
MS.89          	14.867         	8.184
MS.90          	14.837         	7.775
MS.91          	14.807         	7.72
MS.92          	14.78          	7.847
MS.93          	14.75          	8.018
MS.94          	14.72          	7.775
MS.95          	14.69          	7.706
MS.96          	14.662         	7.259
MS.97          	14.632         	7.579
MS.98          	14.602         	7.251
MS.99          	14.572         	7.126
MS.100         	14.545         	6.782
MS.101         	14.515         	7.346
MS.102         	14.487         	6.82
MS.103         	14.457         	6.985
MS.104         	14.427         	6.935
MS.105         	14.4           	6.697
MS.106         	14.37          	6.574
MS.107         	14.342         	6.818
MS.108         	14.312         	6.834
MS.109         	14.285         	6.409
MS.110         	14.257         	6.518
MS.111         	14.227         	6.147
MS.112         	14.2           	6.107
MS.113         	14.17          	5.714
MS.114         	14.142         	5.885
MS.115         	14.115         	5.793
MS.116         	14.087         	5.279
MS.117         	14.057         	5.458
MS.118         	14.03          	5.472
MS.119         	14.002         	5.112
MS.120         	13.975         	5.176
MS.121         	13.945         	5.152
MS.122         	13.917         	5.098
MS.123         	13.89          	4.904
MS.124         	13.862         	4.733
MS.125         	13.835         	4.167
MS.126         	13.807         	4.363
MS.127         	13.78          	4.107
MS.128         	13.752         	4.101
MS.129         	13.725         	4.004
MS.130         	13.697         	3.293
MS.131         	13.67          	3.704
MS.132         	13.642         	3.521
MS.133         	13.615         	3.245
MS.134         	13.587         	3.136
MS.135         	13.56          	2.989
MS.136         	13.535         	3.035
MS.137         	13.507         	2.784
MS.138         	13.48          	3.021
MS.139         	13.452         	2.655
MS.140         	13.425         	2.385
MS.141         	13.4           	2.105
MS.142         	13.372         	2.236
MS.143         	13.345         	2.252
MS.144         	13.32          	1.952
MS.145         	13.292         	1.968
MS.146         	13.265         	2.534
MS.147         	13.24          	1.885
MS.148         	13.212         	1.635
MS.149         	13.188         	1.67
MS.150         	13.16          	1.885
MS.151         	13.135         	1.559
MS.152         	13.108         	1.372
MS.153         	13.082         	1.46
MS.154         	13.055         	1.311
MS.155         	13.03          	1.627
MS.156         	13.002         	1.313
MS.157         	12.977         	1.2
MS.158         	12.952         	1.219
MS.159         	12.925         	1.146
MS.160         	12.9           	1.196
MS.161         	12.875         	1.098
MS.162         	12.847         	1.188
MS.163         	12.822         	1.277
MS.164         	12.797         	1.229
MS.165         	12.773         	1.196
MS.166         	12.745         	1.019
MS.167         	12.72          	1.049
MS.168         	12.695         	1.033
MS.169         	12.67          	1.015
MS.170         	12.645         	1.061
MS.171         	12.62          	0.792
MS.172         	12.595         	0.929
MS.173         	12.568         	0.997
MS.174         	12.542         	0.906
MS.175         	12.517         	0.902
MS.176         	12.492         	0.6
MS.177         	12.467         	0.848
MS.178         	12.443         	0.872
MS.179         	12.42          	0.818
MS.180         	12.395         	0.487
MS.181         	12.37          	0.641
MS.182         	12.345         	0.602
MS.183         	12.32          	0.54
MS.184         	12.295         	0.548
MS.185         	12.27          	0.665
MS.186         	12.245         	0.459
MS.187         	12.222         	0.491
MS.188         	12.197         	0.397
MS.189         	12.172         	0.514
MS.190         	12.148         	0.409
MS.191         	12.125         	0.288
MS.192         	12.1           	0.308
MS.193         	12.075         	0.361
MS.194         	12.052         	0.624
MS.195         	12.028         	0.282
MS.196         	12.002         	0.185
MS.197         	11.98          	0.342
MS.198         	11.955         	0.246
MS.199         	11.932         	0.266
MS.200         	11.907         	0.195
MS.201         	11.885         	0.149
MS.202         	11.86          	0.187
MS.203         	11.837         	0.278
MS.204         	11.812         	0.183
MS.205         	11.79          	0.175
MS.206         	11.765         	0.22
MS.207         	11.742         	0.153
MS.208         	11.72          	0.143
MS.209         	11.695         	0.131
MS.210         	11.672         	0.165
MS.211         	11.65          	0.222
MS.212         	11.625         	0.111
MS.213         	11.602         	0.113
MS.214         	11.58          	0.123
MS.215         	11.555         	0.105
MS.216         	11.532         	0.153
MS.217         	11.51          	0.109
MS.218         	11.488         	0.121
MS.219         	11.465         	0.064
MS.220         	11.44          	0.131
MS.221         	11.417         	0.121
MS.222         	11.395         	0.129
MS.223         	11.372         	0.137
MS.224         	11.35          	0.131
MS.225         	11.327         	0.119
MS.226         	11.305         	0.099
MS.227         	11.282         	0.117
MS.228         	11.26          	0.137
MS.229         	11.238         	0.066
MS.230         	11.215         	0.014
MS.231         	11.193         	0.111
MS.232         	11.17          	0.085
MS.233         	11.148         	0.115
MS.234         	11.125         	0.046
MS.235         	11.102         	0.044
MS.236         	11.08          	0.091
MS.237         	11.057         	0.095
MS.238         	11.037         	0.056
MS.239         	11.015         	0.05
MS.240         	10.992         	0.093
MS.241         	10.97          	0.046
MS.242         	10.948         	0.066
MS.243         	10.927         	0.111
MS.244         	10.905         	0.109
MS.245         	10.882         	0.066
MS.246         	10.863         	0.111
MS.247         	10.84          	0.075
MS.248         	10.818         	0.016
MS.249         	10.797         	0.054
MS.250         	10.775         	0.014
MS.251         	10.752         	0.014
MS.252         	10.733         	0.012
MS.253         	10.71          	0.01
MS.254         	10.69          	0.014
MS.255         	10.667         	0.014
MS.256         	10.648         	0.07
MS.257         	10.625         	0.02
MS.258         	10.605         	0.089
MS.259         	10.582         	0.06
MS.260         	10.562         	0.018
MS.261         	10.54          	0.014
MS.262         	10.52          	0.022
MS.263         	10.497         	0.03
MS.264         	10.477         	0.026
MS.265         	10.457         	0.012
MS.266         	10.435         	0.012
MS.267         	10.415         	0.026
MS.268         	10.395         	0.018
MS.269         	10.372         	0.012
MS.270         	10.352         	0.024
MS.271         	10.332         	0.016
MS.272         	10.31          	0.024
MS.273         	10.29          	0.012
MS.274         	10.27          	0.014
MS.275         	10.25          	0.016
MS.276         	10.23          	0.02
MS.277         	10.207         	0.034
MS.278         	10.188         	0.018
MS.279         	10.167         	0.02
MS.280         	10.148         	0.03
MS.281         	10.127         	0.03
MS.282         	10.108         	0.016
MS.283         	10.087         	0.018
MS.284         	10.068         	0.032
MS.285         	10.047         	0.018
MS.286         	10.028         	0.018
MS.287         	10.005         	0.018
MS.288         	9.988          	0.016
MS.289         	9.967          	0.028
MS.290         	9.948          	0.02
MS.291         	9.927          	0.014
MS.292         	9.907          	0.016
MS.293         	9.887          	0.018
MS.294         	9.867          	0.018
MS.295         	9.847          	0.032
MS.296         	9.827          	0.016
MS.297         	9.807          	0.03
MS.298         	9.787          	0.034
MS.299         	9.77           	0.01
MS.300         	9.75           	0.034
MS.301         	9.73           	0.014
MS.302         	9.71           	0.034
MS.303         	9.69           	0.026
MS.304         	9.672          	0.034
MS.305         	9.653          	0.032
MS.306         	9.632          	0.028
MS.307         	9.615          	0.036
MS.308         	9.595          	0.026
MS.309         	9.575          	0.032
MS.310         	9.557          	0.05
MS.311         	9.537          	0.042
MS.312         	9.517          	0.042
MS.313         	9.5            	0.012
MS.314         	9.48           	0.012
MS.315         	9.462          	0.018
MS.316         	9.443          	0.02
MS.317         	9.422          	0.01
MS.318         	9.405          	0.022
MS.319         	9.385          	0.008
MS.320         	9.367          	0.012
MS.321         	9.347          	0.014
MS.322         	9.33           	0.046
MS.323         	9.31           	0.016
MS.324         	9.292          	0.022
MS.325         	9.275          	0.048
MS.326         	9.255          	0.022
MS.327         	9.238          	0.044
MS.328         	9.217          	0.014
MS.329         	9.2            	0.026
MS.330         	9.182          	0.02
MS.331         	9.162          	0.028
MS.332         	9.145          	0.028
MS.333         	9.127          	0.034
MS.334         	9.108          	0.03
MS.335         	9.09           	0.02
MS.336         	9.073          	0.026
MS.337         	9.055          	0.024
MS.338         	9.035          	0.028
MS.339         	9.017          	0.04
MS.340         	9              	0.032
MS.341         	8.983          	0.02
MS.342         	8.965          	0.03
MS.343         	8.945          	0.022
MS.344         	8.927          	0.056
MS.345         	8.91           	0.04
MS.346         	8.892          	0.026
MS.347         	8.875          	0.062
MS.348         	8.858          	0.03
MS.349         	8.84           	0.036
MS.350         	8.823          	0.068
MS.351         	8.805          	0.066
MS.352         	8.787          	0.066
MS.353         	8.77           	0.073
MS.354         	8.752          	0.068
MS.355         	8.735          	0.07
MS.356         	8.717          	0.07
MS.357         	8.7            	0.066
MS.358         	8.682          	0.07
MS.359         	8.665          	0.062
MS.360         	8.648          	0.075
MS.361         	8.63           	0.068
MS.362         	8.613          	0.068
MS.363         	8.595          	0.068
MS.364         	8.577          	0.07
MS.365         	8.56           	0.068
MS.366         	8.545          	0.075
MS.367         	8.528          	0.068
MS.368         	8.51           	0.07
MS.369         	8.492          	0.073
MS.370         	8.475          	0.07
MS.371         	8.46           	0.073
MS.372         	8.443          	0.073
MS.373         	8.425          	0.073
MS.374         	8.408          	0.068
MS.375         	8.392          	0.07
MS.376         	8.375          	0.075
MS.377         	8.358          	0.075
MS.378         	8.34           	0.073
MS.379         	8.325          	0.068
MS.380         	8.307          	0.07
MS.381         	8.292          	0.075
MS.382         	8.275          	0.068
MS.383         	8.257          	0.068
MS.384         	8.242          	0.068
MS.385         	8.225          	0.075
MS.386         	8.21           	0.068
MS.387         	8.193          	0.07
MS.388         	8.175          	0.07
MS.389         	8.16           	0.073
MS.390         	8.142          	0.075
MS.391         	8.127          	0.075
MS.392         	8.11           	0.073
MS.393         	8.095          	0.07
MS.394         	8.077          	0.081
MS.395         	8.062          	0.073
MS.396         	8.047          	0.068
MS.397         	8.03           	0.075
MS.398         	8.015          	0.079
MS.399         	7.997          	0.085
MS.400         	7.982          	0.081
MS.401         	7.965          	0.079
MS.402         	7.95           	0.079
MS.403         	7.935          	0.079
MS.404         	7.918          	0.079
MS.405         	7.902          	0.077
MS.406         	7.887          	0.083
MS.407         	7.87           	0.07
MS.408         	7.855          	0.083
MS.409         	7.84           	0.079
MS.410         	7.825          	0.079
MS.411         	7.807          	0.079
MS.412         	7.793          	0.079
MS.413         	7.777          	0.085
MS.414         	7.762          	0.085
MS.415         	7.747          	0.083
MS.416         	7.73           	0.087
MS.417         	7.715          	0.085
MS.418         	7.7            	0.085
MS.419         	7.685          	0.087
MS.420         	7.67           	0.085
MS.421         	7.655          	0.085
MS.422         	7.637          	0.083
MS.423         	7.622          	0.083
MS.424         	7.607          	0.083
MS.425         	7.592          	0.083
MS.426         	7.577          	0.083
MS.427         	7.562          	0.081
MS.428         	7.547          	0.087
MS.429         	7.532          	0.083
MS.430         	7.517          	0.085
MS.431         	7.503          	0.085
MS.432         	7.487          	0.085
MS.433         	7.472          	0.089
MS.434         	7.457          	0.085
MS.435         	7.442          	0.081
MS.436         	7.427          	0.083
MS.437         	7.412          	0.085
MS.438         	7.398          	0.083
MS.439         	7.382          	0.085
MS.440         	7.367          	0.085
MS.441         	7.352          	0.085
MS.442         	7.34           	0.083
MS.443         	7.325          	0.083
MS.444         	7.31           	0.083
MS.445         	7.295          	0.083
MS.446         	7.28           	0.083
MS.447         	7.265          	0.079
MS.448         	7.253          	0.083
MS.449         	7.237          	0.083
MS.450         	7.222          	0.085
MS.451         	7.207          	0.083
MS.452         	7.192          	0.091
MS.453         	7.18           	0.083
MS.454         	7.165          	0.091
MS.455         	7.15           	0.085
MS.456         	7.137          	0.083
MS.457         	7.122          	0.091
MS.458         	7.108          	0.081
MS.459         	7.092          	0.099
MS.460         	7.08           	0.093
MS.461         	7.065          	0.097
MS.462         	7.052          	0.095
MS.463         	7.037          	0.097
MS.464         	7.023          	0.097
MS.465         	7.01           	0.097
MS.466         	6.995          	0.097
MS.467         	6.98           	0.101
MS.468         	6.967          	0.097
MS.469         	6.952          	0.093
MS.470         	6.94           	0.099
MS.471         	6.925          	0.099
MS.472         	6.912          	0.095
MS.473         	6.898          	0.097
MS.474         	6.885          	0.095
MS.475         	6.87           	0.097
MS.476         	6.858          	0.095
MS.477         	6.842          	0.097
MS.478         	6.83           	0.099
MS.479         	6.815          	0.101
MS.480         	6.802          	0.095
MS.481         	6.787          	0.097
MS.482         	6.775          	0.095
MS.483         	6.762          	0.097
MS.484         	6.747          	0.095
MS.485         	6.735          	0.097
MS.486         	6.72           	0.099
MS.487         	6.707          	0.099
MS.488         	6.695          	0.093
MS.489         	6.68           	0.093
MS.490         	6.668          	0.099
MS.491         	6.655          	0.101
MS.492         	6.64           	0.095
MS.493         	6.628          	0.097
MS.494         	6.615          	0.099
MS.495         	6.6            	0.097
MS.496         	6.587          	0.099
MS.497         	6.575          	0.095
MS.498         	6.562          	0.099
MS.499         	6.547          	0.097
MS.500         	6.535          	0.099
MS.501         	6.523          	0.097
MS.502         	6.51           	0.095
MS.503         	6.495          	0.099
MS.504         	6.483          	0.097
MS.505         	6.47           	0.097
MS.506         	6.457          	0.097
MS.507         	6.445          	0.097
MS.508         	6.432          	0.097
MS.509         	6.418          	0.097
MS.510         	6.405          	0.099
MS.511         	6.392          	0.095
MS.512         	6.38           	0.095
MS.513         	6.367          	0.095
MS.514         	6.355          	0.095
MS.515         	6.342          	0.095
MS.516         	6.33           	0.095
MS.517         	6.317          	0.095
MS.518         	6.305          	0.097
MS.519         	6.293          	0.097
MS.520         	6.28           	0.097
MS.521         	6.267          	0.095
MS.522         	6.255          	0.099
MS.523         	6.242          	0.095
MS.524         	6.23           	0.095
MS.525         	6.217          	0.095
MS.526         	6.205          	0.097
MS.527         	6.192          	0.099
MS.528         	6.18           	0.097
MS.529         	6.168          	0.097
MS.530         	6.155          	0.097
MS.531         	6.142          	0.103
MS.532         	6.13           	0.101
MS.533         	6.117          	0.095
MS.534         	6.105          	0.099
MS.535         	6.092          	0.101
MS.536         	6.08           	0.103
MS.537         	6.07           	0.101
MS.538         	6.057          	0.095
MS.539         	6.045          	0.105
MS.540         	6.032          	0.095
MS.541         	6.02           	0.101
MS.542         	6.007          	0.095
MS.543         	5.997          	0.099
MS.544         	5.985          	0.101
MS.545         	5.972          	0.107
MS.546         	5.96           	0.107
MS.547         	5.95           	0.097
MS.548         	5.938          	0.103
MS.549         	5.925          	0.101
MS.550         	5.912          	0.101
MS.551         	5.902          	0.103
MS.552         	5.89           	0.105
MS.553         	5.878          	0.103
MS.554         	5.865          	0.103
MS.555         	5.855          	0.103
MS.556         	5.842          	0.101
MS.557         	5.83           	0.103
MS.558         	5.82           	0.103
MS.559         	5.807          	0.103
MS.560         	5.795          	0.103
MS.561         	5.785          	0.101
MS.562         	5.773          	0.103
MS.563         	5.762          	0.103
MS.564         	5.75           	0.103
MS.565         	5.737          	0.105
MS.566         	5.727          	0.103
MS.567         	5.715          	0.103
MS.568         	5.705          	0.105
MS.569         	5.692          	0.103
MS.570         	5.682          	0.105
MS.571         	5.67           	0.103
MS.572         	5.66           	0.101
MS.573         	5.648          	0.105
MS.574         	5.635          	0.101
MS.575         	5.625          	0.105
MS.576         	5.612          	0.103
MS.577         	5.602          	0.103
MS.578         	5.592          	0.103
MS.579         	5.58           	0.105
MS.580         	5.57           	0.099
MS.581         	5.557          	0.101
MS.582         	5.547          	0.101
MS.583         	5.535          	0.103
MS.584         	5.525          	0.101
MS.585         	5.512          	0.105
MS.586         	5.503          	0.103
MS.587         	5.492          	0.105
MS.588         	5.48           	0.103
MS.589         	5.47           	0.107
MS.590         	5.457          	0.103
MS.591         	5.447          	0.105
MS.592         	5.438          	0.103
MS.593         	5.425          	0.101
MS.594         	5.415          	0.004
MS.595         	5.405          	0.103
MS.596         	5.392          	0.008
MS.597         	5.382          	0.105
MS.598         	5.372          	0.103
MS.599         	5.362          	0.103
MS.600         	5.35           	0.103
MS.601         	5.34           	0.099
MS.602         	5.33           	0.107
MS.603         	5.318          	0.006
MS.604         	5.307          	0.105
MS.605         	5.297          	0.101
MS.606         	5.287          	0.105
MS.607         	5.275          	0.006
MS.608         	5.265          	0.101
MS.609         	5.255          	0.008
MS.610         	5.245          	0.008
MS.611         	5.235          	0.103
MS.612         	5.222          	0.002
MS.613         	5.213          	0.006
MS.614         	5.202          	0.008
MS.615         	5.193          	0.008
MS.616         	5.182          	0.004
MS.617         	5.172          	0.008
MS.618         	5.162          	0.004
MS.619         	5.15           	0.004
MS.620         	5.14           	0.101
MS.621         	5.13           	0.006
MS.622         	5.12           	0.006
MS.623         	5.11           	0.006
MS.624         	5.1            	0.006
MS.625         	5.09           	0.006
MS.626         	5.08           	0.004
MS.627         	5.07           	0.006
MS.628         	5.06           	0.004
MS.629         	5.05           	0.008
MS.630         	5.04           	0.006
MS.631         	5.03           	0.006
MS.632         	5.02           	0.006
MS.633         	5.01           	0.006
MS.634         	5              	0.006
MS.635         	4.99           	0.006
MS.636         	4.98           	0.006
MS.637         	4.97           	0.008
MS.638         	4.96           	0.004
MS.639         	4.95           	0.006
MS.640         	4.94           	0.008
MS.641         	4.93           	0.006
MS.642         	4.92           	0.006
DERIVED EXCITABILITY VARIABLES
Program = QTracP 3/4/2020
Threshold method = 6 (optimised for CAP, using data for present condition only)
SR method = 1 (using actual data values)
6.                 	0.000               	Peak response\(mV)
9.                 	32.5                	Temperature ( C)
17.                	53                  	Age (years)
18.                	2                   	Sex (M=1, F=2)

EXTRA VARIABLES

MScPeak(mV) = 10.6
MScS5(mA) = 12.23
MScS50(mA) = 14.06
MScS95(mA) = 16.02
MScNSteps = 5
MScSteps(%) = 11.7
MScStepMax(%) = 2.7
MScD50 = 28
MScSlope = 10.21
MSFPeakAmp(mV) = 10.6
MSFNUnits = 145
MSFMeanUnitAmp(uV) = 73.2
MSFHuntTime(m) = 1.95
MSFError(%) = 6.68
MSFNLarge = 48.51
MSFMedianAmp(%) = 0.619
MSFMedianAmp(mV) = 0.0656
MSFHalfAmpAmp(%) = 0.728
MSFHalfAmpAmp(mV) = 0.0772
MSFLargestAmp(%) = 3.42
MSFLargestAmp(mV) = 0.362
MSFMeanRS(%) = 2
MSFOpts = 10106121
MScDuration(min) = 5.9
MSFTraces = 263
MSFSizeLimit(uV) = 26.5
MSFLimitType = 1
MSFSmallestAmp(uV) = 28.2

EXTRA WAVEFORMS


!MScan Model
!145
	1	10.8	0.34	2
	2	11.28	0.41	2
	3	11.62	0.45	2
	4	11.73	0.27	2
	5	11.88	0.62	2
	6	12.01	0.7	2
	7	12.1	0.7	2
	8	12.19	0.77	2
	9	12.26	0.76	2
	10	12.3	0.42	2
	11	12.35	0.48	2
	12	12.4	0.61	2
	13	12.46	0.57	2
	14	12.51	0.61	2
	15	12.57	0.64	2
	16	12.63	0.7	2
	17	12.73	0.9	2
	18	12.85	0.91	2.4
	19	12.92	1.11	2
	20	13	1.5	1.77
	21	13.07	0.64	2
	22	13.11	0.94	2
	23	13.15	0.89	2
	24	13.18	0.81	2
	25	13.22	0.91	2
	26	13.25	0.99	2
	27	13.28	0.77	2
	28	13.3	0.68	2
	29	13.33	0.73	2
	30	13.35	0.78	2
	31	13.37	0.76	2
	32	13.39	0.64	2
	33	13.41	0.65	2
	34	13.43	0.73	2
	35	13.45	0.82	2
	36	13.47	0.79	2
	37	13.49	0.77	2
	38	13.51	0.65	2
	39	13.52	0.39	2
	40	13.53	0.39	2
	41	13.54	0.38	2
	42	13.55	0.38	2
	43	13.56	0.38	2
	44	13.57	0.39	2
	45	13.58	0.39	2
	46	13.59	0.42	2
	47	13.6	0.48	2
	48	13.61	0.48	2
	49	13.62	0.48	2
	50	13.63	0.48	2
	51	13.64	0.48	2
	52	13.65	0.39	2
	53	13.66	0.39	2
	54	13.67	0.39	2
	55	13.68	0.39	2
	56	13.68	0.39	2
	57	13.69	0.39	2
	58	13.7	0.38	2
	59	13.71	0.38	2
	60	13.72	0.38	2
	61	13.73	0.38	2
	62	13.73	0.41	2
	63	13.74	0.41	2
	64	13.75	0.41	2
	65	13.76	0.41	2
	66	13.77	0.41	2
	67	13.78	0.41	2
	68	13.79	0.51	2
	69	13.8	0.64	2
	70	13.81	0.64	2
	71	13.82	0.62	2
	72	13.84	0.6	2
	73	13.85	0.47	2
	74	13.86	0.47	2
	75	13.88	0.54	2
	76	13.89	0.54	2
	77	13.9	0.57	2
	78	13.91	0.57	2
	79	13.93	0.6	2
	80	13.94	0.61	2
	81	13.96	0.63	2
	82	13.97	0.64	2
	83	13.98	0.71	2
	84	14	0.75	2
	85	14.01	0.64	2
	86	14.03	0.6	2
	87	14.04	0.59	2
	88	14.05	0.58	2
	89	14.07	0.56	2
	90	14.08	0.55	2
	91	14.09	0.54	2
	92	14.11	0.54	2
	93	14.12	0.5	2
	94	14.13	0.42	2
	95	14.15	0.44	2
	96	14.16	0.48	2
	97	14.17	0.48	2
	98	14.19	0.5	2
	99	14.2	0.5	2
	100	14.22	0.95	2
	101	14.25	0.98	2
	102	14.28	0.7	2
	103	14.3	0.71	2
	104	14.33	0.8	2
	105	14.36	1.02	2
	106	14.4	1.31	2
	107	14.44	1.56	2
	108	14.48	1.07	2
	109	14.51	0.84	2
	110	14.54	0.74	2
	111	14.57	0.42	2
	112	14.6	0.7	2
	113	14.63	0.77	2
	114	14.67	0.99	2
	115	14.71	0.96	2
	116	14.75	0.87	2
	117	14.79	0.92	2
	118	14.84	1.24	2
	119	14.89	1.04	2
	120	14.94	0.73	2
	121	14.96	0.44	2
	122	14.99	0.45	2
	123	15.01	0.64	2
	124	15.04	0.63	2
	125	15.06	0.61	2
	126	15.1	0.86	2
	127	15.15	1.08	2
	128	15.2	1.04	2
	129	15.26	1.45	2
	130	15.34	1.66	2
	131	15.52	3.42	2
	132	15.66	1.34	2
	133	15.75	1.06	2
	134	15.82	1.22	2
	135	15.87	0.78	2
	136	15.92	0.57	2
	137	15.96	0.5	2
	138	16	0.67	2
	139	16.04	0.6	2
	140	16.07	0.56	2
	141	16.11	0.4	2
	142	16.14	0.41	2
	143	16.2	0.75	2
	144	16.31	1.4	2
	145	16.57	0.86	2

