File:              	C:\Qtrac\Data\Daniel M Sørensen\MScan multicentre study\Data from centres\Edmonton\MSCC00304B.QZD
Name:              	CA.EDM.NC.5.2
Protocol:          	MSCAN-R2
Date:              	4/3/20
Start time:        	12:08:54
Age:               	53
Sex:               	F
Temperature:       	34.8
S/R sites:         	Ulnar Wr-ADM
NC/disease:        	NC
Operator:          	KJ
Comments:
M-SCAN DATA (6.5-1.7m)
Scanpts: 67, 70, 506, 527
Stim. (mA)     	Amp. (mV)
MS.1           	18             	9.4
MS.2           	18             	9.392
MS.3           	18             	9.39
MS.4           	18             	9.396
MS.5           	18             	9.386
MS.6           	18             	9.398
MS.7           	18             	9.396
MS.8           	18             	9.38
MS.9           	18             	9.42
MS.10          	18             	9.406
MS.11          	18             	9.436
MS.12          	18             	9.44
MS.13          	18             	9.438
MS.14          	18             	9.448
MS.15          	18             	9.442
MS.16          	18             	9.458
MS.17          	18             	9.456
MS.18          	18             	9.458
MS.19          	18             	9.473
MS.20          	18             	9.44
MS.21          	18             	9.454
MS.22          	18             	9.45
MS.23          	18             	9.458
MS.24          	17.927         	9.448
MS.25          	17.892         	9.45
MS.26          	17.858         	9.45
MS.27          	17.82          	9.454
MS.28          	17.785         	9.458
MS.29          	17.75          	9.452
MS.30          	17.715         	9.461
MS.31          	17.68          	9.463
MS.32          	17.642         	9.477
MS.33          	17.608         	9.475
MS.34          	17.573         	9.481
MS.35          	17.538         	9.477
MS.36          	17.503         	9.461
MS.37          	17.467         	9.483
MS.38          	17.432         	9.487
MS.39          	17.397         	9.481
MS.40          	17.362         	9.475
MS.41          	17.33          	9.483
MS.42          	17.295         	9.487
MS.43          	17.26          	9.485
MS.44          	17.225         	9.489
MS.45          	17.19          	9.473
MS.46          	17.157         	9.495
MS.47          	17.122         	9.487
MS.48          	17.087         	9.489
MS.49          	17.052         	9.475
MS.50          	17.02          	9.491
MS.51          	16.985         	9.501
MS.52          	16.952         	9.481
MS.53          	16.917         	9.477
MS.54          	16.885         	9.481
MS.55          	16.85          	9.465
MS.56          	16.817         	9.473
MS.57          	16.782         	9.479
MS.58          	16.75          	9.448
MS.59          	16.715         	9.493
MS.60          	16.682         	9.483
MS.61          	16.65          	9.505
MS.62          	16.615         	9.515
MS.63          	16.583         	9.501
MS.64          	16.55          	9.513
MS.65          	16.517         	9.519
MS.66          	16.483         	9.521
MS.67          	16.45          	9.529
MS.68          	16.417         	9.533
MS.69          	16.385         	9.527
MS.70          	16.352         	9.497
MS.71          	16.32          	9.493
MS.72          	16.288         	9.503
MS.73          	16.255         	9.503
MS.74          	16.222         	9.501
MS.75          	16.19          	9.499
MS.76          	16.157         	9.511
MS.77          	16.125         	9.491
MS.78          	16.092         	9.489
MS.79          	16.06          	9.487
MS.80          	16.028         	9.465
MS.81          	15.997         	9.469
MS.82          	15.965         	9.483
MS.83          	15.932         	9.475
MS.84          	15.9           	9.481
MS.85          	15.87          	9.507
MS.86          	15.837         	9.499
MS.87          	15.805         	9.463
MS.88          	15.775         	9.493
MS.89          	15.742         	9.477
MS.90          	15.71          	9.473
MS.91          	15.68          	9.481
MS.92          	15.648         	9.454
MS.93          	15.617         	9.42
MS.94          	15.585         	9.44
MS.95          	15.555         	9.438
MS.96          	15.523         	9.396
MS.97          	15.492         	9.412
MS.98          	15.462         	9.43
MS.99          	15.43          	9.376
MS.100         	15.4           	9.38
MS.101         	15.37          	9.362
MS.102         	15.337         	9.344
MS.103         	15.307         	9.342
MS.104         	15.277         	9.332
MS.105         	15.247         	9.332
MS.106         	15.217         	9.315
MS.107         	15.185         	9.332
MS.108         	15.155         	9.322
MS.109         	15.125         	9.322
MS.110         	15.095         	9.287
MS.111         	15.065         	9.293
MS.112         	15.035         	9.32
MS.113         	15.005         	9.275
MS.114         	14.975         	9.285
MS.115         	14.945         	9.283
MS.116         	14.915         	9.303
MS.117         	14.885         	9.269
MS.118         	14.855         	9.257
MS.119         	14.825         	9.283
MS.120         	14.795         	9.215
MS.121         	14.767         	9.289
MS.122         	14.737         	9.253
MS.123         	14.707         	9.217
MS.124         	14.677         	9.229
MS.125         	14.65          	9.201
MS.126         	14.62          	9.199
MS.127         	14.59          	9.156
MS.128         	14.562         	9.181
MS.129         	14.532         	9.166
MS.130         	14.502         	9.132
MS.131         	14.475         	9.205
MS.132         	14.445         	9.068
MS.133         	14.417         	9.072
MS.134         	14.387         	9.116
MS.135         	14.36          	9.15
MS.136         	14.33          	9.126
MS.137         	14.302         	9.132
MS.138         	14.273         	9.066
MS.139         	14.245         	9.08
MS.140         	14.215         	9.116
MS.141         	14.188         	9.052
MS.142         	14.16          	9.066
MS.143         	14.13          	8.957
MS.144         	14.102         	8.953
MS.145         	14.075         	8.925
MS.146         	14.047         	8.963
MS.147         	14.017         	8.882
MS.148         	13.99          	8.911
MS.149         	13.962         	8.866
MS.150         	13.935         	8.756
MS.151         	13.907         	8.844
MS.152         	13.88          	8.872
MS.153         	13.85          	8.766
MS.154         	13.822         	8.77
MS.155         	13.795         	8.721
MS.156         	13.767         	8.754
MS.157         	13.74          	8.733
MS.158         	13.712         	8.766
MS.159         	13.685         	8.673
MS.160         	13.657         	8.582
MS.161         	13.632         	8.792
MS.162         	13.605         	8.423
MS.163         	13.577         	8.363
MS.164         	13.55          	8.498
MS.165         	13.523         	8.457
MS.166         	13.495         	8.391
MS.167         	13.467         	8.276
MS.168         	13.443         	8.266
MS.169         	13.415         	8.343
MS.170         	13.387         	8.262
MS.171         	13.362         	8.19
MS.172         	13.335         	8.262
MS.173         	13.307         	8.218
MS.174         	13.282         	8.171
MS.175         	13.255         	8.204
MS.176         	13.227         	8.18
MS.177         	13.202         	8.135
MS.178         	13.175         	8.069
MS.179         	13.15          	8.087
MS.180         	13.122         	8.067
MS.181         	13.097         	8.125
MS.182         	13.07          	8.087
MS.183         	13.045         	8.109
MS.184         	13.017         	7.92
MS.185         	12.992         	7.994
MS.186         	12.967         	7.982
MS.187         	12.94          	7.867
MS.188         	12.915         	8.075
MS.189         	12.89          	7.948
MS.190         	12.862         	7.906
MS.191         	12.837         	7.914
MS.192         	12.812         	7.906
MS.193         	12.785         	7.855
MS.194         	12.76          	7.718
MS.195         	12.735         	7.904
MS.196         	12.71          	7.898
MS.197         	12.685         	7.692
MS.198         	12.66          	7.708
MS.199         	12.632         	7.823
MS.200         	12.608         	7.74
MS.201         	12.582         	7.62
MS.202         	12.557         	7.74
MS.203         	12.532         	7.458
MS.204         	12.507         	7.547
MS.205         	12.483         	7.616
MS.206         	12.457         	7.571
MS.207         	12.432         	7.487
MS.208         	12.407         	7.273
MS.209         	12.382         	7.271
MS.210         	12.36          	7.432
MS.211         	12.335         	7.364
MS.212         	12.31          	7.412
MS.213         	12.285         	7.235
MS.214         	12.26          	7.323
MS.215         	12.235         	7.366
MS.216         	12.212         	7.261
MS.217         	12.188         	7.122
MS.218         	12.162         	7.142
MS.219         	12.137         	7.128
MS.220         	12.115         	7.037
MS.221         	12.09          	7.16
MS.222         	12.065         	6.985
MS.223         	12.042         	6.882
MS.224         	12.017         	6.786
MS.225         	11.992         	6.707
MS.226         	11.97          	6.951
MS.227         	11.945         	7.025
MS.228         	11.922         	6.816
MS.229         	11.898         	6.725
MS.230         	11.875         	6.306
MS.231         	11.85          	6.729
MS.232         	11.827         	6.598
MS.233         	11.802         	6.548
MS.234         	11.78          	6.49
MS.235         	11.755         	6.026
MS.236         	11.733         	6.163
MS.237         	11.71          	6.016
MS.238         	11.685         	5.75
MS.239         	11.662         	5.63
MS.240         	11.64          	5.599
MS.241         	11.615         	5.587
MS.242         	11.592         	5.811
MS.243         	11.57          	5.75
MS.244         	11.547         	5.38
MS.245         	11.523         	5.537
MS.246         	11.5           	5.283
MS.247         	11.477         	4.979
MS.248         	11.455         	5.142
MS.249         	11.432         	4.778
MS.250         	11.407         	4.399
MS.251         	11.385         	4.22
MS.252         	11.363         	4.181
MS.253         	11.34          	4.711
MS.254         	11.318         	4.159
MS.255         	11.295         	4.3
MS.256         	11.273         	3.946
MS.257         	11.25          	4.33
MS.258         	11.227         	3.893
MS.259         	11.205         	4.022
MS.260         	11.182         	4.095
MS.261         	11.16          	3.781
MS.262         	11.137         	3.704
MS.263         	11.115         	3.531
MS.264         	11.092         	3.432
MS.265         	11.073         	3.539
MS.266         	11.05          	3.166
MS.267         	11.028         	3.519
MS.268         	11.005         	3.478
MS.269         	10.983         	3.424
MS.270         	10.962         	3.372
MS.271         	10.94          	3.062
MS.272         	10.917         	3.462
MS.273         	10.895         	3.035
MS.274         	10.875         	3.098
MS.275         	10.852         	2.784
MS.276         	10.83          	3.007
MS.277         	10.81          	3.104
MS.278         	10.787         	2.737
MS.279         	10.765         	2.608
MS.280         	10.745         	2.485
MS.281         	10.722         	2.421
MS.282         	10.702         	2.608
MS.283         	10.68          	2.558
MS.284         	10.657         	2.459
MS.285         	10.637         	2.397
MS.286         	10.615         	2.407
MS.287         	10.595         	2.528
MS.288         	10.573         	2.216
MS.289         	10.552         	2.25
MS.290         	10.532         	2.212
MS.291         	10.51          	2.157
MS.292         	10.49          	2.298
MS.293         	10.467         	2.06
MS.294         	10.448         	2.058
MS.295         	10.427         	1.956
MS.296         	10.405         	2.01
MS.297         	10.385         	2.004
MS.298         	10.365         	1.682
MS.299         	10.342         	1.889
MS.300         	10.323         	1.72
MS.301         	10.302         	1.766
MS.302         	10.282         	1.855
MS.303         	10.26          	1.744
MS.304         	10.24          	1.627
MS.305         	10.22          	1.601
MS.306         	10.2           	1.601
MS.307         	10.18          	1.47
MS.308         	10.16          	1.327
MS.309         	10.14          	1.609
MS.310         	10.117         	1.376
MS.311         	10.097         	1.484
MS.312         	10.077         	1.269
MS.313         	10.057         	1.37
MS.314         	10.037         	1.309
MS.315         	10.017         	1.239
MS.316         	9.997          	1.323
MS.317         	9.977          	1.142
MS.318         	9.957          	1.078
MS.319         	9.938          	0.981
MS.320         	9.917          	0.979
MS.321         	9.898          	1.076
MS.322         	9.877          	1.023
MS.323         	9.86           	0.898
MS.324         	9.84           	0.838
MS.325         	9.82           	0.87
MS.326         	9.8            	0.79
MS.327         	9.78           	0.892
MS.328         	9.76           	0.638
MS.329         	9.74           	0.733
MS.330         	9.722          	0.717
MS.331         	9.702          	0.669
MS.332         	9.682          	0.713
MS.333         	9.662          	0.54
MS.334         	9.645          	0.657
MS.335         	9.625          	0.548
MS.336         	9.605          	0.487
MS.337         	9.587          	0.632
MS.338         	9.568          	0.628
MS.339         	9.547          	0.485
MS.340         	9.53           	0.461
MS.341         	9.51           	0.399
MS.342         	9.49           	0.413
MS.343         	9.472          	0.52
MS.344         	9.452          	0.417
MS.345         	9.435          	0.254
MS.346         	9.415          	0.407
MS.347         	9.398          	0.405
MS.348         	9.377          	0.322
MS.349         	9.36           	0.312
MS.350         	9.34           	0.298
MS.351         	9.323          	0.346
MS.352         	9.302          	0.324
MS.353         	9.285          	0.352
MS.354         	9.265          	0.292
MS.355         	9.247          	0.3
MS.356         	9.23           	0.459
MS.357         	9.21           	0.387
MS.358         	9.193          	0.352
MS.359         	9.175          	0.336
MS.360         	9.155          	0.336
MS.361         	9.137          	0.334
MS.362         	9.12           	0.282
MS.363         	9.1            	0.252
MS.364         	9.082          	0.282
MS.365         	9.065          	0.214
MS.366         	9.047          	0.23
MS.367         	9.028          	0.264
MS.368         	9.01           	0.167
MS.369         	8.992          	0.254
MS.370         	8.975          	0.27
MS.371         	8.957          	0.207
MS.372         	8.938          	0.238
MS.373         	8.92           	0.28
MS.374         	8.903          	0.248
MS.375         	8.885          	0.228
MS.376         	8.867          	0.177
MS.377         	8.85           	0.135
MS.378         	8.832          	0.201
MS.379         	8.815          	0.197
MS.380         	8.797          	0.171
MS.381         	8.78           	0.151
MS.382         	8.762          	0.22
MS.383         	8.745          	0.203
MS.384         	8.727          	0.177
MS.385         	8.71           	0.149
MS.386         	8.693          	0.185
MS.387         	8.675          	0.113
MS.388         	8.658          	0.151
MS.389         	8.64           	0.06
MS.390         	8.622          	0.109
MS.391         	8.605          	0.119
MS.392         	8.587          	0.093
MS.393         	8.57           	0.042
MS.394         	8.552          	0.101
MS.395         	8.537          	0.054
MS.396         	8.52           	0.038
MS.397         	8.502          	0.107
MS.398         	8.485          	0.054
MS.399         	8.467          	0.099
MS.400         	8.452          	0.107
MS.401         	8.435          	0.056
MS.402         	8.417          	0.054
MS.403         	8.4            	0.087
MS.404         	8.385          	0.075
MS.405         	8.367          	0.06
MS.406         	8.35           	0.05
MS.407         	8.335          	0.085
MS.408         	8.318          	0.068
MS.409         	8.3            	0.073
MS.410         	8.285          	0.07
MS.411         	8.267          	0.105
MS.412         	8.252          	0.077
MS.413         	8.235          	0.087
MS.414         	8.217          	0.107
MS.415         	8.202          	0.085
MS.416         	8.185          	0.095
MS.417         	8.17           	0.085
MS.418         	8.153          	0.091
MS.419         	8.137          	0.095
MS.420         	8.12           	0.085
MS.421         	8.105          	0.085
MS.422         	8.087          	0.101
MS.423         	8.073          	0.113
MS.424         	8.055          	0.087
MS.425         	8.04           	0.07
MS.426         	8.023          	0.101
MS.427         	8.007          	0.097
MS.428         	7.992          	0.095
MS.429         	7.975          	0.093
MS.430         	7.96           	0.099
MS.431         	7.942          	0.087
MS.432         	7.927          	0.085
MS.433         	7.912          	0.097
MS.434         	7.895          	0.097
MS.435         	7.88           	0.048
MS.436         	7.865          	0.073
MS.437         	7.85           	0.05
MS.438         	7.832          	0.05
MS.439         	7.817          	0.048
MS.440         	7.802          	0.046
MS.441         	7.787          	0.089
MS.442         	7.77           	0.091
MS.443         	7.755          	0.066
MS.444         	7.74           	0.054
MS.445         	7.725          	0.046
MS.446         	7.71           	0.046
MS.447         	7.692          	0.036
MS.448         	7.677          	0.048
MS.449         	7.662          	0.046
MS.450         	7.648          	0.038
MS.451         	7.632          	0.052
MS.452         	7.617          	0.03
MS.453         	7.602          	0.042
MS.454         	7.587          	0.034
MS.455         	7.572          	0.042
MS.456         	7.555          	0.022
MS.457         	7.54           	0.018
MS.458         	7.525          	0.026
MS.459         	7.51           	0.034
MS.460         	7.495          	0.022
MS.461         	7.48           	0.03
MS.462         	7.465          	0.024
MS.463         	7.45           	0.022
MS.464         	7.438          	0.012
MS.465         	7.422          	0.024
MS.466         	7.407          	0.034
MS.467         	7.392          	0.024
MS.468         	7.378          	0.018
MS.469         	7.362          	0.02
MS.470         	7.347          	0.02
MS.471         	7.332          	0.018
MS.472         	7.317          	0.02
MS.473         	7.302          	0.036
MS.474         	7.29           	0.022
MS.475         	7.275          	0.016
MS.476         	7.26           	0.018
MS.477         	7.245          	0.018
MS.478         	7.23           	0.008
MS.479         	7.217          	0.022
MS.480         	7.202          	0.01
MS.481         	7.188          	0.01
MS.482         	7.172          	0.008
MS.483         	7.16           	0.01
MS.484         	7.145          	0.018
MS.485         	7.13           	0.01
MS.486         	7.115          	0.018
MS.487         	7.102          	0.008
MS.488         	7.087          	0.026
MS.489         	7.072          	0.012
MS.490         	7.06           	0.016
MS.491         	7.045          	0.01
MS.492         	7.032          	0.014
MS.493         	7.017          	0.018
MS.494         	7.003          	0.004
MS.495         	6.99           	0.006
MS.496         	6.975          	0.008
MS.497         	6.962          	0.008
MS.498         	6.947          	0.014
MS.499         	6.932          	0.02
MS.500         	6.92           	0.008
MS.501         	6.905          	0.01
MS.502         	6.892          	0.006
MS.503         	6.878          	0.008
MS.504         	6.865          	0.006
MS.505         	6.85           	0.018
MS.506         	6.837          	0.008
MS.507         	6.822          	0.008
MS.508         	6.81           	0.01
MS.509         	6.795          	0.01
MS.510         	6.782          	0.008
MS.511         	6.77           	0.006
MS.512         	6.755          	0.008
MS.513         	6.742          	0.01
MS.514         	6.727          	0.01
MS.515         	6.715          	0.006
MS.516         	6.702          	0.006
MS.517         	6.688          	0.006
MS.518         	6.675          	0.01
MS.519         	6.662          	0.006
MS.520         	6.648          	0.008
MS.521         	6.635          	0.01
MS.522         	6.622          	0.01
MS.523         	6.608          	0.008
MS.524         	6.595          	0.008
MS.525         	6.582          	0.01
MS.526         	6.57           	0.02
MS.527         	6.555          	0.012
DERIVED EXCITABILITY VARIABLES
Program = QTracP 3/4/2020
Threshold method = 6 (optimised for CAP, using data for present condition only)
SR method = 1 (using actual data values)
6.                 	0.000               	Peak response\(mV)
9.                 	34.8                	Temperature ( C)
17.                	53                  	Age (years)
18.                	2                   	Sex (M=1, F=2)

EXTRA VARIABLES

MScPeak(mV) = 9.42
MScS5(mA) = 9.49
MScS50(mA) = 11.37
MScS95(mA) = 14.07
MScNSteps = 3
MScSteps(%) = 6.7
MScStepMax(%) = 2.4
MScD50 = 41
MScSlope = 7.48
MSFPeakAmp(mV) = 9.51
MSFNUnits = 161
MSFMeanUnitAmp(uV) = 59.1
MSFHuntTime(m) = 2.87
MSFError(%) = 3.58
MSFNLarge = 48.86
MSFMedianAmp(%) = 0.526
MSFMedianAmp(mV) = 0.05
MSFHalfAmpAmp(%) = 0.756
MSFHalfAmpAmp(mV) = 0.0719
MSFLargestAmp(%) = 1.65
MSFLargestAmp(mV) = 0.157
MSFMeanRS(%) = 1.99
MSFOpts = 10106121
MScDuration(min) = 4.8
MSFTraces = 461
MSFSizeLimit(uV) = 23.8
MSFLimitType = 1
MSFSmallestAmp(uV) = 26.1

EXTRA WAVEFORMS


!MScan Model
!161
	1	7.58	0.29	2
	2	7.85	0.36	2
	3	8.53	0.29	2
	4	8.63	0.27	2
	5	8.73	0.31	2
	6	8.87	0.52	2
	7	9	0.52	2
	8	9.26	0.93	2
	9	9.43	0.94	2
	10	9.5	0.56	2
	11	9.54	0.36	2
	12	9.59	0.5	2
	13	9.62	0.36	2
	14	9.65	0.4	2
	15	9.68	0.45	2
	16	9.72	0.53	2
	17	9.73	0.29	2
	18	9.75	0.31	2
	19	9.77	0.34	2
	20	9.79	0.32	2
	21	9.81	0.29	2
	22	9.83	0.31	2
	23	9.85	0.32	2
	24	9.87	0.34	2
	25	9.88	0.32	2
	26	9.9	0.29	2
	27	9.91	0.29	2
	28	9.93	0.3	2
	29	9.95	0.3	2
	30	9.96	0.3	2
	31	9.98	0.31	2
	32	10	0.39	2
	33	10.02	0.38	2
	34	10.04	0.38	2
	35	10.06	0.38	2
	36	10.08	0.38	2
	37	10.1	0.39	2
	38	10.12	0.39	2
	39	10.13	0.39	2
	40	10.15	0.39	2
	41	10.17	0.39	2
	42	10.19	0.42	2
	43	10.21	0.44	2
	44	10.23	0.44	2
	45	10.26	0.44	2
	46	10.28	0.43	2
	47	10.29	0.37	2
	48	10.31	0.35	2
	49	10.33	0.37	2
	50	10.35	0.38	2
	51	10.37	0.38	2
	52	10.38	0.4	2
	53	10.41	0.55	2
	54	10.44	0.54	2
	55	10.47	0.53	2
	56	10.49	0.52	2
	57	10.52	0.54	2
	58	10.55	0.58	2
	59	10.57	0.62	2
	60	10.6	0.65	2
	61	10.62	0.6	2
	62	10.65	0.64	2
	63	10.67	0.68	2
	64	10.7	0.72	2
	65	10.73	0.75	2
	66	10.76	0.77	2
	67	10.8	0.82	2
	68	10.83	0.72	2
	69	10.86	0.77	2
	70	10.89	0.81	2
	71	10.92	0.86	2
	72	10.95	0.86	2
	73	10.98	0.91	2
	74	11.01	0.97	2
	75	11.04	1.13	2
	76	11.09	1.33	2
	77	11.13	1.32	2
	78	11.16	0.91	2
	79	11.19	0.97	2
	80	11.22	1.08	2
	81	11.24	1.22	2
	82	11.27	0.88	2
	83	11.29	0.82	2
	84	11.32	0.88	2
	85	11.34	0.92	2
	86	11.36	0.97	2
	87	11.39	0.96	2
	88	11.41	0.96	2
	89	11.43	0.97	2
	90	11.45	0.98	2
	91	11.47	1.01	2
	92	11.5	0.93	2
	93	11.52	0.93	2
	94	11.54	0.94	2
	95	11.57	0.95	2
	96	11.59	0.95	2
	97	11.62	1.23	2
	98	11.64	1.18	2
	99	11.67	1.09	2
	100	11.7	1.01	2
	101	11.73	1.32	2
	102	11.76	1.46	2
	103	11.8	1.25	2
	104	11.83	1.04	2
	105	11.87	0.92	2
	106	11.9	0.85	2
	107	11.93	0.76	2
	108	11.99	1.62	2
	109	12.06	1.65	2
	110	12.14	1.55	2
	111	12.21	0.98	2
	112	12.25	0.61	2
	113	12.29	0.59	2
	114	12.33	0.65	2
	115	12.38	0.74	2
	116	12.43	0.64	2
	117	12.48	0.63	2
	118	12.53	0.61	2
	119	12.58	0.58	2
	120	12.63	0.51	2
	121	12.69	0.48	2
	122	12.76	0.79	2
	123	12.82	0.6	2
	124	12.89	0.61	2
	125	12.96	0.53	2
	126	13.02	0.49	2
	127	13.09	0.47	2
	128	13.16	0.47	2
	129	13.22	0.5	2
	130	13.27	0.33	2
	131	13.36	0.59	1.6
	132	13.4	0.3	1.6
	133	13.43	0.34	2
	134	13.47	0.37	2
	135	13.51	0.4	1.6
	136	13.54	0.4	2
	137	13.58	0.39	2
	138	13.65	0.76	2
	139	13.71	0.45	2
	140	13.75	0.42	2
	141	13.81	0.58	2
	142	13.85	0.57	2
	143	13.86	0.59	2
	144	13.92	0.52	2
	145	13.97	0.46	2
	146	14.02	0.38	2
	147	14.07	0.32	2
	148	14.12	0.29	2
	149	14.21	0.55	2
	150	14.27	0.32	2
	151	14.32	0.27	2
	152	14.41	0.46	2
	153	14.5	0.41	2
	154	14.62	0.52	2
	155	14.82	0.45	2
	156	14.95	0.31	2
	157	15.35	0.64	2
	158	15.52	0.41	2
	159	15.66	0.29	2
	160	15.68	0.35	2
	161	15.8	0.28	2

