File:              	C:\Qtrac\Data\Daniel M Sørensen\MScan multicentre study\Data from centres\Edmonton\MSCC00204A.QZD
Name:              	CA.EDM.NC.1.2
Protocol:          	MSCAN-R2
Date:              	4/2/20
Start time:        	13:21:05
Age:               	43
Sex:               	M
Temperature:       	33.3
S/R sites:         	Median Wr-APB
NC/disease:        	NC
Operator:          	KJ
Comments:          	2nd visit
M-SCAN DATA (7.4-1.7m)
Scanpts: 106, 111, 596, 617
Stim. (mA)     	Amp. (mV)
MS.1           	14             	9.255
MS.2           	14             	9.271
MS.3           	14             	9.247
MS.4           	14             	9.215
MS.5           	14             	9.195
MS.6           	14             	9.181
MS.7           	14             	9.207
MS.8           	14             	9.195
MS.9           	14             	9.179
MS.10          	14             	9.181
MS.11          	14             	9.187
MS.12          	14             	9.166
MS.13          	14             	9.174
MS.14          	14             	9.185
MS.15          	14             	9.193
MS.16          	14             	9.191
MS.17          	14             	9.187
MS.18          	14             	9.193
MS.19          	14             	9.207
MS.20          	14             	9.223
MS.21          	14             	9.203
MS.22          	14             	9.201
MS.23          	14             	9.231
MS.24          	13.945         	9.207
MS.25          	13.915         	9.193
MS.26          	13.887         	9.209
MS.27          	13.86          	9.205
MS.28          	13.832         	9.217
MS.29          	13.805         	9.211
MS.30          	13.778         	9.221
MS.31          	13.75          	9.235
MS.32          	13.722         	9.233
MS.33          	13.695         	9.217
MS.34          	13.667         	9.229
MS.35          	13.64          	9.225
MS.36          	13.612         	9.195
MS.37          	13.585         	9.197
MS.38          	13.56          	9.205
MS.39          	13.532         	9.203
MS.40          	13.505         	9.189
MS.41          	13.477         	9.179
MS.42          	13.45          	9.211
MS.43          	13.425         	9.205
MS.44          	13.398         	9.201
MS.45          	13.37          	9.183
MS.46          	13.345         	9.215
MS.47          	13.318         	9.211
MS.48          	13.29          	9.199
MS.49          	13.265         	9.209
MS.50          	13.237         	9.207
MS.51          	13.21          	9.193
MS.52          	13.185         	9.199
MS.53          	13.157         	9.215
MS.54          	13.132         	9.211
MS.55          	13.105         	9.223
MS.56          	13.08          	9.201
MS.57          	13.052         	9.225
MS.58          	13.028         	9.223
MS.59          	13.002         	9.203
MS.60          	12.975         	9.205
MS.61          	12.95          	9.221
MS.62          	12.922         	9.205
MS.63          	12.898         	9.205
MS.64          	12.872         	9.191
MS.65          	12.847         	9.221
MS.66          	12.82          	9.215
MS.67          	12.795         	9.217
MS.68          	12.77          	9.209
MS.69          	12.745         	9.217
MS.70          	12.717         	9.215
MS.71          	12.693         	9.227
MS.72          	12.667         	9.221
MS.73          	12.642         	9.213
MS.74          	12.617         	9.211
MS.75          	12.592         	9.199
MS.76          	12.568         	9.209
MS.77          	12.542         	9.203
MS.78          	12.517         	9.217
MS.79          	12.492         	9.209
MS.80          	12.467         	9.205
MS.81          	12.443         	9.197
MS.82          	12.417         	9.221
MS.83          	12.392         	9.207
MS.84          	12.367         	9.217
MS.85          	12.342         	9.209
MS.86          	12.318         	9.209
MS.87          	12.292         	9.195
MS.88          	12.267         	9.203
MS.89          	12.245         	9.215
MS.90          	12.22          	9.227
MS.91          	12.195         	9.233
MS.92          	12.17          	9.217
MS.93          	12.148         	9.219
MS.94          	12.122         	9.213
MS.95          	12.097         	9.229
MS.96          	12.075         	9.235
MS.97          	12.05          	9.233
MS.98          	12.025         	9.243
MS.99          	12.002         	9.223
MS.100         	11.977         	9.245
MS.101         	11.955         	9.241
MS.102         	11.93          	9.231
MS.103         	11.905         	9.219
MS.104         	11.882         	9.243
MS.105         	11.858         	9.245
MS.106         	11.835         	9.241
MS.107         	11.812         	9.235
MS.108         	11.787         	9.253
MS.109         	11.765         	9.245
MS.110         	11.74          	9.245
MS.111         	11.717         	9.251
MS.112         	11.693         	9.235
MS.113         	11.67          	9.235
MS.114         	11.648         	9.235
MS.115         	11.625         	9.247
MS.116         	11.6           	9.243
MS.117         	11.577         	9.247
MS.118         	11.555         	9.237
MS.119         	11.53          	9.195
MS.120         	11.507         	9.241
MS.121         	11.485         	9.241
MS.122         	11.462         	9.237
MS.123         	11.44          	9.223
MS.124         	11.417         	9.245
MS.125         	11.392         	9.253
MS.126         	11.37          	9.257
MS.127         	11.347         	9.187
MS.128         	11.325         	9.247
MS.129         	11.302         	9.255
MS.130         	11.28          	9.195
MS.131         	11.257         	9.193
MS.132         	11.235         	9.195
MS.133         	11.212         	9.213
MS.134         	11.19          	9.205
MS.135         	11.167         	9.193
MS.136         	11.145         	9.183
MS.137         	11.122         	9.191
MS.138         	11.1           	9.174
MS.139         	11.08          	9.174
MS.140         	11.057         	9.185
MS.141         	11.035         	9.193
MS.142         	11.012         	9.201
MS.143         	10.99          	9.183
MS.144         	10.97          	9.195
MS.145         	10.948         	9.189
MS.146         	10.925         	9.195
MS.147         	10.903         	9.203
MS.148         	10.882         	9.17
MS.149         	10.86          	9.247
MS.150         	10.837         	9.199
MS.151         	10.818         	9.251
MS.152         	10.795         	9.201
MS.153         	10.773         	9.183
MS.154         	10.752         	9.213
MS.155         	10.73          	9.211
MS.156         	10.707         	9.199
MS.157         	10.688         	9.209
MS.158         	10.665         	9.207
MS.159         	10.645         	9.207
MS.160         	10.622         	9.199
MS.161         	10.602         	9.197
MS.162         	10.58          	9.174
MS.163         	10.56          	9.166
MS.164         	10.537         	9.197
MS.165         	10.517         	9.177
MS.166         	10.497         	9.181
MS.167         	10.475         	9.179
MS.168         	10.455         	9.197
MS.169         	10.435         	9.191
MS.170         	10.412         	9.181
MS.171         	10.392         	9.191
MS.172         	10.372         	9.195
MS.173         	10.35          	8.961
MS.174         	10.33          	9.048
MS.175         	10.31          	9.029
MS.176         	10.29          	9.191
MS.177         	10.267         	9.195
MS.178         	10.247         	8.891
MS.179         	10.227         	8.967
MS.180         	10.207         	8.973
MS.181         	10.188         	9.036
MS.182         	10.165         	8.905
MS.183         	10.145         	8.917
MS.184         	10.125         	8.913
MS.185         	10.105         	8.901
MS.186         	10.085         	8.997
MS.187         	10.065         	8.993
MS.188         	10.045         	8.987
MS.189         	10.025         	8.905
MS.190         	10.005         	8.939
MS.191         	9.985          	9.013
MS.192         	9.965          	8.766
MS.193         	9.945          	9.042
MS.194         	9.925          	8.933
MS.195         	9.905          	9.007
MS.196         	9.885          	8.782
MS.197         	9.865          	8.778
MS.198         	9.845          	9.038
MS.199         	9.825          	8.927
MS.200         	9.807          	8.901
MS.201         	9.787          	8.921
MS.202         	9.767          	8.786
MS.203         	9.747          	9.005
MS.204         	9.727          	8.743
MS.205         	9.71           	8.792
MS.206         	9.69           	8.917
MS.207         	9.67           	9.013
MS.208         	9.65           	8.758
MS.209         	9.632          	8.754
MS.210         	9.613          	8.969
MS.211         	9.592          	8.764
MS.212         	9.575          	8.762
MS.213         	9.555          	8.788
MS.214         	9.535          	8.786
MS.215         	9.517          	8.687
MS.216         	9.497          	8.76
MS.217         	9.48           	8.723
MS.218         	9.46           	8.719
MS.219         	9.44           	8.661
MS.220         	9.422          	8.544
MS.221         	9.403          	8.766
MS.222         	9.385          	8.582
MS.223         	9.365          	8.524
MS.224         	9.347          	8.566
MS.225         	9.327          	8.48
MS.226         	9.31           	8.466
MS.227         	9.29           	8.397
MS.228         	9.273          	8.449
MS.229         	9.255          	8.274
MS.230         	9.235          	7.988
MS.231         	9.217          	8.139
MS.232         	9.198          	8.25
MS.233         	9.18           	8.294
MS.234         	9.162          	8.22
MS.235         	9.142          	7.908
MS.236         	9.125          	7.873
MS.237         	9.108          	7.759
MS.238         	9.09           	7.873
MS.239         	9.07           	7.666
MS.240         	9.052          	7.412
MS.241         	9.035          	7.446
MS.242         	9.017          	7.533
MS.243         	8.997          	7.68
MS.244         	8.98           	7.706
MS.245         	8.962          	7.199
MS.246         	8.945          	7.122
MS.247         	8.927          	6.51
MS.248         	8.91           	7.144
MS.249         	8.89           	6.955
MS.250         	8.872          	6.935
MS.251         	8.855          	7.118
MS.252         	8.837          	6.945
MS.253         	8.82           	6.983
MS.254         	8.802          	6.961
MS.255         	8.785          	7.005
MS.256         	8.767          	7.031
MS.257         	8.75           	6.997
MS.258         	8.733          	6.929
MS.259         	8.715          	6.882
MS.260         	8.698          	6.461
MS.261         	8.68           	6.592
MS.262         	8.662          	6.351
MS.263         	8.645          	6.286
MS.264         	8.627          	6.353
MS.265         	8.61           	6.61
MS.266         	8.595          	5.976
MS.267         	8.577          	6.03
MS.268         	8.56           	6.169
MS.269         	8.542          	5.922
MS.270         	8.525          	5.817
MS.271         	8.507          	5.765
MS.272         	8.492          	6.508
MS.273         	8.475          	6.055
MS.274         	8.457          	5.938
MS.275         	8.44           	6.252
MS.276         	8.422          	5.875
MS.277         	8.408          	5.611
MS.278         	8.39           	5.73
MS.279         	8.372          	5.873
MS.280         	8.358          	5.946
MS.281         	8.34           	5.7
MS.282         	8.323          	5.722
MS.283         	8.307          	5.742
MS.284         	8.29           	5.458
MS.285         	8.273          	5.763
MS.286         	8.257          	5.511
MS.287         	8.24           	5.523
MS.288         	8.225          	5.477
MS.289         	8.207          	5.301
MS.290         	8.19           	5.392
MS.291         	8.175          	5.497
MS.292         	8.158          	5.108
MS.293         	8.142          	5.468
MS.294         	8.125          	5.281
MS.295         	8.11           	5.37
MS.296         	8.092          	5.223
MS.297         	8.077          	4.967
MS.298         	8.06           	5.203
MS.299         	8.045          	4.977
MS.300         	8.03           	5.023
MS.301         	8.012          	4.713
MS.302         	7.997          	4.639
MS.303         	7.98           	4.778
MS.304         	7.965          	5.033
MS.305         	7.95           	4.506
MS.306         	7.932          	4.482
MS.307         	7.918          	4.445
MS.308         	7.902          	4.387
MS.309         	7.885          	4.518
MS.310         	7.87           	3.952
MS.311         	7.855          	4.365
MS.312         	7.837          	4.153
MS.313         	7.822          	4.085
MS.314         	7.807          	3.926
MS.315         	7.793          	3.889
MS.316         	7.775          	3.95
MS.317         	7.76           	3.354
MS.318         	7.745          	3.621
MS.319         	7.73           	3.704
MS.320         	7.715          	3.714
MS.321         	7.697          	3.557
MS.322         	7.682          	3.186
MS.323         	7.668          	3.178
MS.324         	7.652          	3.668
MS.325         	7.637          	3.08
MS.326         	7.622          	3.299
MS.327         	7.607          	2.912
MS.328         	7.592          	3.364
MS.329         	7.577          	3.184
MS.330         	7.562          	2.965
MS.331         	7.547          	2.969
MS.332         	7.53           	2.914
MS.333         	7.515          	2.798
MS.334         	7.5            	2.804
MS.335         	7.485          	2.602
MS.336         	7.47           	2.753
MS.337         	7.457          	2.703
MS.338         	7.442          	2.55
MS.339         	7.427          	2.616
MS.340         	7.412          	2.771
MS.341         	7.398          	2.602
MS.342         	7.382          	2.858
MS.343         	7.367          	2.403
MS.344         	7.352          	2.624
MS.345         	7.337          	2.6
MS.346         	7.322          	2.435
MS.347         	7.307          	2.588
MS.348         	7.295          	2.443
MS.349         	7.28           	2.467
MS.350         	7.265          	2.351
MS.351         	7.25           	2.298
MS.352         	7.235          	2.425
MS.353         	7.222          	2.431
MS.354         	7.207          	2.405
MS.355         	7.192          	2.31
MS.356         	7.177          	2.361
MS.357         	7.165          	2.288
MS.358         	7.15           	2.177
MS.359         	7.135          	2.143
MS.360         	7.12           	2.183
MS.361         	7.108          	2.02
MS.362         	7.092          	2.038
MS.363         	7.077          	2
MS.364         	7.065          	1.887
MS.365         	7.05           	1.857
MS.366         	7.035          	1.915
MS.367         	7.023          	1.837
MS.368         	7.007          	1.853
MS.369         	6.995          	1.849
MS.370         	6.98           	1.746
MS.371         	6.965          	1.899
MS.372         	6.952          	1.603
MS.373         	6.938          	1.712
MS.374         	6.925          	1.531
MS.375         	6.91           	1.666
MS.376         	6.898          	1.638
MS.377         	6.882          	1.515
MS.378         	6.87           	1.599
MS.379         	6.855          	1.575
MS.380         	6.842          	1.565
MS.381         	6.827          	1.581
MS.382         	6.815          	1.509
MS.383         	6.8            	1.458
MS.384         	6.787          	1.476
MS.385         	6.773          	1.233
MS.386         	6.76           	1.337
MS.387         	6.747          	1.416
MS.388         	6.733          	1.382
MS.389         	6.72           	1.323
MS.390         	6.707          	1.372
MS.391         	6.692          	1.251
MS.392         	6.68           	1.166
MS.393         	6.665          	1.349
MS.394         	6.652          	1.174
MS.395         	6.64           	1.194
MS.396         	6.628          	1.12
MS.397         	6.612          	1.057
MS.398         	6.6            	1.051
MS.399         	6.587          	1.15
MS.400         	6.572          	1.088
MS.401         	6.56           	0.975
MS.402         	6.547          	0.973
MS.403         	6.535          	1.118
MS.404         	6.52           	0.878
MS.405         	6.507          	1.184
MS.406         	6.495          	1.098
MS.407         	6.483          	0.856
MS.408         	6.47           	1.029
MS.409         	6.457          	0.86
MS.410         	6.442          	0.856
MS.411         	6.43           	0.812
MS.412         	6.418          	1.015
MS.413         	6.405          	0.814
MS.414         	6.392          	0.947
MS.415         	6.38           	0.959
MS.416         	6.367          	0.884
MS.417         	6.355          	0.784
MS.418         	6.34           	0.81
MS.419         	6.327          	0.852
MS.420         	6.315          	0.693
MS.421         	6.302          	0.818
MS.422         	6.29           	0.562
MS.423         	6.277          	0.806
MS.424         	6.265          	0.636
MS.425         	6.253          	0.695
MS.426         	6.24           	0.645
MS.427         	6.227          	0.578
MS.428         	6.215          	0.572
MS.429         	6.202          	0.449
MS.430         	6.19           	0.552
MS.431         	6.177          	0.63
MS.432         	6.165          	0.52
MS.433         	6.152          	0.532
MS.434         	6.142          	0.5
MS.435         	6.13           	0.473
MS.436         	6.117          	0.502
MS.437         	6.105          	0.413
MS.438         	6.092          	0.459
MS.439         	6.08           	0.407
MS.440         	6.067          	0.491
MS.441         	6.055          	0.409
MS.442         	6.045          	0.429
MS.443         	6.032          	0.419
MS.444         	6.02           	0.363
MS.445         	6.007          	0.383
MS.446         	5.995          	0.371
MS.447         	5.985          	0.385
MS.448         	5.972          	0.389
MS.449         	5.96           	0.375
MS.450         	5.947          	0.377
MS.451         	5.935          	0.363
MS.452         	5.925          	0.361
MS.453         	5.912          	0.336
MS.454         	5.9            	0.357
MS.455         	5.89           	0.344
MS.456         	5.878          	0.336
MS.457         	5.865          	0.365
MS.458         	5.852          	0.359
MS.459         	5.842          	0.318
MS.460         	5.83           	0.322
MS.461         	5.817          	0.33
MS.462         	5.807          	0.292
MS.463         	5.795          	0.31
MS.464         	5.785          	0.312
MS.465         	5.773          	0.3
MS.466         	5.76           	0.357
MS.467         	5.75           	0.29
MS.468         	5.737          	0.32
MS.469         	5.725          	0.322
MS.470         	5.715          	0.284
MS.471         	5.702          	0.286
MS.472         	5.692          	0.304
MS.473         	5.68           	0.292
MS.474         	5.67           	0.326
MS.475         	5.657          	0.292
MS.476         	5.648          	0.262
MS.477         	5.635          	0.284
MS.478         	5.625          	0.264
MS.479         	5.612          	0.274
MS.480         	5.602          	0.304
MS.481         	5.59           	0.326
MS.482         	5.58           	0.292
MS.483         	5.567          	0.294
MS.484         	5.557          	0.268
MS.485         	5.545          	0.28
MS.486         	5.535          	0.264
MS.487         	5.523          	0.26
MS.488         	5.512          	0.27
MS.489         	5.503          	0.266
MS.490         	5.49           	0.262
MS.491         	5.48           	0.26
MS.492         	5.47           	0.26
MS.493         	5.457          	0.272
MS.494         	5.447          	0.274
MS.495         	5.435          	0.26
MS.496         	5.425          	0.264
MS.497         	5.415          	0.264
MS.498         	5.402          	0.151
MS.499         	5.392          	0.264
MS.500         	5.382          	0.27
MS.501         	5.37           	0.272
MS.502         	5.36           	0.262
MS.503         	5.35           	0.24
MS.504         	5.34           	0.139
MS.505         	5.327          	0.159
MS.506         	5.318          	0.27
MS.507         	5.307          	0.246
MS.508         	5.297          	0.252
MS.509         	5.285          	0.139
MS.510         	5.275          	0.139
MS.511         	5.265          	0.131
MS.512         	5.255          	0.161
MS.513         	5.245          	0.24
MS.514         	5.233          	0.083
MS.515         	5.222          	0.139
MS.516         	5.213          	0.139
MS.517         	5.202          	0.129
MS.518         	5.193          	0.157
MS.519         	5.182          	0.093
MS.520         	5.17           	0.143
MS.521         	5.16           	0.135
MS.522         	5.15           	0.131
MS.523         	5.14           	0.133
MS.524         	5.13           	0.073
MS.525         	5.12           	0.077
MS.526         	5.11           	0.139
MS.527         	5.1            	0.079
MS.528         	5.09           	0.083
MS.529         	5.077          	0.079
MS.530         	5.068          	0.081
MS.531         	5.057          	0.04
MS.532         	5.047          	0.075
MS.533         	5.037          	0.075
MS.534         	5.027          	0.137
MS.535         	5.017          	0.068
MS.536         	5.007          	0.073
MS.537         	4.997          	0.068
MS.538         	4.987          	0.075
MS.539         	4.977          	0.064
MS.540         	4.967          	0.068
MS.541         	4.957          	0.073
MS.542         	4.947          	0.07
MS.543         	4.938          	0.075
MS.544         	4.927          	0.073
MS.545         	4.918          	0.034
MS.546         	4.91           	0.044
MS.547         	4.9            	0.07
MS.548         	4.89           	0.07
MS.549         	4.88           	0.036
MS.550         	4.87           	0.036
MS.551         	4.86           	0.04
MS.552         	4.85           	0.064
MS.553         	4.84           	0.032
MS.554         	4.83           	0.07
MS.555         	4.822          	0.068
MS.556         	4.812          	0.034
MS.557         	4.802          	0.038
MS.558         	4.793          	0.07
MS.559         	4.782          	0.028
MS.560         	4.773          	0.038
MS.561         	4.765          	0.04
MS.562         	4.755          	0.034
MS.563         	4.745          	0.073
MS.564         	4.735          	0.036
MS.565         	4.725          	0.04
MS.566         	4.717          	0.036
MS.567         	4.707          	0.036
MS.568         	4.697          	0.04
MS.569         	4.688          	0.036
MS.570         	4.68           	0.026
MS.571         	4.67           	0.034
MS.572         	4.66           	0.038
MS.573         	4.65           	0.036
MS.574         	4.642          	0.03
MS.575         	4.632          	0.006
MS.576         	4.622          	0.034
MS.577         	4.615          	0.01
MS.578         	4.605          	0.036
MS.579         	4.595          	0.036
MS.580         	4.585          	0.006
MS.581         	4.577          	0.032
MS.582         	4.568          	0.016
MS.583         	4.56           	0.01
MS.584         	4.55           	0.008
MS.585         	4.54           	0.004
MS.586         	4.532          	0.012
MS.587         	4.523          	0.000
MS.588         	4.512          	0.016
MS.589         	4.505          	0.006
MS.590         	4.495          	0.006
MS.591         	4.487          	0.014
MS.592         	4.477          	0.006
MS.593         	4.467          	0.004
MS.594         	4.46           	0.012
MS.595         	4.45           	0.016
MS.596         	4.443          	0.018
MS.597         	4.432          	0.018
MS.598         	4.425          	0.002
MS.599         	4.415          	0.014
MS.600         	4.407          	0.006
MS.601         	4.398          	0.002
MS.602         	4.39           	0.008
MS.603         	4.38           	0.01
MS.604         	4.372          	0.006
MS.605         	4.362          	0.008
MS.606         	4.355          	0.008
MS.607         	4.345          	0.014
MS.608         	4.338          	0.008
MS.609         	4.327          	0.004
MS.610         	4.32           	0.006
MS.611         	4.31           	0.012
MS.612         	4.302          	0.000
MS.613         	4.293          	0.006
MS.614         	4.285          	0.006
MS.615         	4.275          	0.01
MS.616         	4.267          	0.004
MS.617         	4.26           	0.008
DERIVED EXCITABILITY VARIABLES
Program = QTracP 3/4/2020
Threshold method = 6 (optimised for CAP, using data for present condition only)
SR method = 1 (using actual data values)
6.                 	0.000               	Peak response\(mV)
9.                 	33.3                	Temperature ( C)
17.                	43                  	Age (years)
18.                	1                   	Sex (M=1, F=2)

EXTRA VARIABLES

MScPeak(mV) = 9.19
MScS5(mA) = 6.13
MScS50(mA) = 7.95
MScS95(mA) = 9.46
MScNSteps = 4
MScSteps(%) = 9.4
MScStepMax(%) = 3
MScD50 = 42
MScSlope = 4.86
MSFPeakAmp(mV) = 9.24
MSFNUnits = 131
MSFMeanUnitAmp(uV) = 70.5
MSFHuntTime(m) = 3.05
MSFError(%) = 4.06
MSFNLarge = 38.05
MSFMedianAmp(%) = 0.653
MSFMedianAmp(mV) = 0.0603
MSFHalfAmpAmp(%) = 0.861
MSFHalfAmpAmp(mV) = 0.0795
MSFLargestAmp(%) = 2.92
MSFLargestAmp(mV) = 0.27
MSFMeanRS(%) = 2
MSFOpts = 10106121
MScDuration(min) = 5.7
MSFTraces = 512
MSFSizeLimit(uV) = 23.1
MSFLimitType = 1
MSFSmallestAmp(uV) = 24.8

EXTRA WAVEFORMS


!MScan Model
!131
	1	4.68	0.37	2
	2	5.08	0.46	2
	3	5.23	0.65	2
	4	5.3	0.78	2
	5	5.31	0.6	2
	6	5.72	0.37	2
	7	5.87	0.52	2
	8	6	0.53	2
	9	6.08	0.47	2
	10	6.12	0.49	2
	11	6.18	0.57	2
	12	6.22	0.72	2
	13	6.25	0.48	2
	14	6.28	0.48	2
	15	6.32	0.96	2
	16	6.41	1.28	2
	17	6.54	1.55	2
	18	6.57	0.28	2
	19	6.6	0.37	2
	20	6.62	0.46	2
	21	6.65	0.51	2
	22	6.68	0.5	2
	23	6.71	0.64	2
	24	6.74	0.8	2
	25	6.77	0.47	2
	26	6.79	0.3	2
	27	6.81	0.34	2
	28	6.84	0.59	2
	29	6.87	0.68	2
	30	6.9	0.49	2
	31	6.92	0.3	2
	32	6.94	0.36	2
	33	6.96	0.36	2
	34	6.97	0.3	2
	35	6.99	0.31	2
	36	7	0.35	2
	37	7.01	0.37	2
	38	7.03	0.32	2
	39	7.05	0.44	2
	40	7.06	0.52	2
	41	7.08	0.52	2
	42	7.09	0.32	2
	43	7.11	0.36	2
	44	7.12	0.36	2
	45	7.13	0.32	2
	46	7.14	0.31	2
	47	7.15	0.31	2
	48	7.16	0.27	2
	49	7.17	0.27	2
	50	7.19	0.49	2
	51	7.22	0.77	2
	52	7.26	0.62	2
	53	7.3	0.8	2
	54	7.39	1.32	2
	55	7.44	0.9	2
	56	7.48	0.76	2
	57	7.5	0.51	2
	58	7.52	0.64	2
	59	7.55	1.11	2
	60	7.59	1.45	2
	61	7.62	1.35	2
	62	7.67	1.68	2
	63	7.7	1.01	2
	64	7.71	0.72	2
	65	7.73	0.69	2
	66	7.75	0.79	2
	67	7.77	0.96	2
	68	7.79	0.79	2
	69	7.8	0.7	2
	70	7.81	0.65	2
	71	7.83	0.67	2
	72	7.84	0.87	2
	73	7.87	1.11	2
	74	7.89	1.31	2
	75	7.91	1.15	2
	76	7.93	0.94	2
	77	7.94	0.68	2
	78	7.96	0.65	2
	79	7.97	0.65	2
	80	7.99	0.66	2
	81	8	0.7	2
	82	8.02	0.78	2
	83	8.04	0.68	2
	84	8.05	0.49	2
	85	8.07	0.58	2
	86	8.09	0.65	2
	87	8.12	1.19	2
	88	8.16	1.21	2
	89	8.19	0.76	2
	90	8.22	0.64	2
	91	8.25	0.76	2
	92	8.29	1.06	2
	93	8.39	2.45	2
	94	8.55	2.92	2
	95	8.61	1.54	2
	96	8.62	0.64	2
	97	8.64	0.86	2
	98	8.66	0.88	2
	99	8.68	1.13	2
	100	8.7	0.64	2
	101	8.73	0.51	1.6
	102	8.86	1.93	2
	103	8.93	2.03	2
	104	8.97	1.36	2
	105	9.01	1.26	2
	106	9.04	1.25	2
	107	9.06	1.22	2
	108	9.09	1.26	2
	109	9.1	1.24	2
	110	9.11	0.94	2
	111	9.13	0.73	2
	112	9.15	0.72	2
	113	9.17	0.76	2
	114	9.19	0.54	2
	115	9.21	0.71	2
	116	9.24	1.24	2
	117	9.27	0.97	2
	118	9.29	0.32	2
	119	9.3	0.32	2
	120	9.31	0.32	2
	121	9.33	0.29	2
	122	9.35	0.5	2
	123	9.38	0.5	2
	124	9.41	0.52	2
	125	9.45	0.53	2
	126	9.51	0.67	2
	127	9.61	0.97	2
	128	10.15	1.77	2
	129	10.25	0.46	2
	130	10.37	1.19	2
	131	11.03	0.7	2

