File:              	C:\Qtrac\Data\Daniel M Sørensen\MScan multicentre study\Data from centres\Edmonton\MSCC00215B.QZD
Name:              	CA.EDM.NC.2.2
Protocol:          	MSCAN-R2
Date:              	15/2/20
Start time:        	10:00:26
Age:               	56
Sex:               	F
Temperature:       	34.5
S/R sites:         	Ulnar Wr-ADM
NC/disease:        	NC
Operator:          	KJ
Comments:
M-SCAN DATA (5.3-1.6m)
Scanpts: 14, 17, 397, 418
Stim. (mA)     	Amp. (mV)
MS.1           	13             	9.809
MS.2           	13             	9.771
MS.3           	13             	9.813
MS.4           	13             	9.801
MS.5           	13             	9.811
MS.6           	13             	9.811
MS.7           	13             	9.795
MS.8           	13             	9.799
MS.9           	13             	9.797
MS.10          	13             	9.811
MS.11          	13             	9.815
MS.12          	13             	9.817
MS.13          	13             	9.829
MS.14          	13             	9.843
MS.15          	13             	9.823
MS.16          	13             	9.811
MS.17          	13             	9.829
MS.18          	13             	9.831
MS.19          	13             	9.827
MS.20          	13             	9.823
MS.21          	13             	9.829
MS.22          	13             	9.805
MS.23          	12.947         	9.807
MS.24          	12.922         	9.799
MS.25          	12.898         	9.819
MS.26          	12.87          	9.801
MS.27          	12.845         	9.805
MS.28          	12.82          	9.805
MS.29          	12.792         	9.831
MS.30          	12.767         	9.789
MS.31          	12.742         	9.793
MS.32          	12.717         	9.791
MS.33          	12.693         	9.779
MS.34          	12.667         	9.797
MS.35          	12.64          	9.805
MS.36          	12.615         	9.797
MS.37          	12.59          	9.775
MS.38          	12.565         	9.7
MS.39          	12.54          	9.827
MS.40          	12.515         	9.738
MS.41          	12.49          	9.759
MS.42          	12.465         	9.745
MS.43          	12.44          	9.789
MS.44          	12.415         	9.712
MS.45          	12.39          	9.66
MS.46          	12.365         	9.618
MS.47          	12.34          	9.797
MS.48          	12.318         	9.769
MS.49          	12.292         	9.781
MS.50          	12.267         	9.642
MS.51          	12.242         	9.704
MS.52          	12.217         	9.632
MS.53          	12.195         	9.682
MS.54          	12.17          	9.585
MS.55          	12.145         	9.676
MS.56          	12.12          	9.728
MS.57          	12.097         	9.63
MS.58          	12.072         	9.688
MS.59          	12.047         	9.579
MS.60          	12.025         	9.648
MS.61          	12             	9.64
MS.62          	11.977         	9.644
MS.63          	11.952         	9.604
MS.64          	11.927         	9.634
MS.65          	11.905         	9.636
MS.66          	11.88          	9.61
MS.67          	11.858         	9.616
MS.68          	11.832         	9.571
MS.69          	11.81          	9.575
MS.70          	11.787         	9.66
MS.71          	11.762         	9.583
MS.72          	11.74          	9.569
MS.73          	11.715         	9.612
MS.74          	11.693         	9.571
MS.75          	11.67          	9.604
MS.76          	11.645         	9.555
MS.77          	11.622         	9.555
MS.78          	11.6           	9.549
MS.79          	11.575         	9.557
MS.80          	11.552         	9.521
MS.81          	11.53          	9.543
MS.82          	11.507         	9.525
MS.83          	11.485         	9.485
MS.84          	11.46          	9.507
MS.85          	11.438         	9.511
MS.86          	11.415         	9.473
MS.87          	11.392         	9.461
MS.88          	11.37          	9.426
MS.89          	11.347         	9.487
MS.90          	11.325         	9.531
MS.91          	11.302         	9.309
MS.92          	11.28          	9.426
MS.93          	11.257         	9.436
MS.94          	11.235         	9.43
MS.95          	11.212         	9.279
MS.96          	11.19          	8.969
MS.97          	11.167         	8.88
MS.98          	11.145         	9.241
MS.99          	11.122         	9.231
MS.100         	11.1           	9.13
MS.101         	11.077         	8.933
MS.102         	11.055         	8.874
MS.103         	11.032         	8.804
MS.104         	11.012         	9.203
MS.105         	10.99          	8.359
MS.106         	10.967         	8.671
MS.107         	10.945         	8.709
MS.108         	10.925         	8.594
MS.109         	10.903         	8.435
MS.110         	10.88          	8.504
MS.111         	10.858         	8.592
MS.112         	10.837         	8.544
MS.113         	10.815         	8.137
MS.114         	10.792         	8.502
MS.115         	10.773         	7.728
MS.116         	10.75          	7.831
MS.117         	10.73          	8.045
MS.118         	10.707         	7.811
MS.119         	10.685         	7.646
MS.120         	10.665         	7.825
MS.121         	10.642         	7.587
MS.122         	10.622         	7.658
MS.123         	10.6           	7.605
MS.124         	10.58          	7.609
MS.125         	10.557         	7.599
MS.126         	10.537         	7.789
MS.127         	10.517         	7.545
MS.128         	10.495         	7.38
MS.129         	10.475         	7.392
MS.130         	10.452         	7.285
MS.131         	10.432         	7.414
MS.132         	10.412         	7.448
MS.133         	10.39          	7.44
MS.134         	10.37          	7.241
MS.135         	10.35          	7.046
MS.136         	10.33          	7.307
MS.137         	10.307         	7.283
MS.138         	10.287         	6.81
MS.139         	10.267         	7.281
MS.140         	10.247         	6.784
MS.141         	10.225         	7.144
MS.142         	10.205         	6.812
MS.143         	10.185         	6.673
MS.144         	10.165         	6.943
MS.145         	10.145         	6.848
MS.146         	10.125         	7.035
MS.147         	10.105         	6.578
MS.148         	10.085         	6.842
MS.149         	10.065         	6.86
MS.150         	10.042         	6.373
MS.151         	10.023         	6.467
MS.152         	10.002         	6.586
MS.153         	9.983          	6.357
MS.154         	9.962          	6.582
MS.155         	9.945          	6.306
MS.156         	9.925          	6.268
MS.157         	9.905          	6.401
MS.158         	9.885          	6.127
MS.159         	9.865          	6.133
MS.160         	9.845          	6.188
MS.161         	9.825          	6.226
MS.162         	9.805          	5.644
MS.163         	9.785          	6.036
MS.164         	9.767          	5.823
MS.165         	9.747          	5.821
MS.166         	9.727          	5.779
MS.167         	9.707          	5.505
MS.168         	9.688          	5.456
MS.169         	9.67           	5.555
MS.170         	9.65           	5.565
MS.171         	9.63           	5.734
MS.172         	9.613          	5.545
MS.173         	9.592          	5.432
MS.174         	9.573          	5.791
MS.175         	9.555          	5.342
MS.176         	9.535          	5.376
MS.177         	9.515          	5.382
MS.178         	9.497          	5.203
MS.179         	9.477          	5.364
MS.180         	9.46           	5.257
MS.181         	9.44           	5.152
MS.182         	9.42           	5.076
MS.183         	9.403          	4.808
MS.184         	9.382          	4.913
MS.185         	9.365          	4.979
MS.186         	9.345          	5.106
MS.187         	9.327          	4.876
MS.188         	9.307          	4.637
MS.189         	9.29           	4.947
MS.190         	9.273          	4.83
MS.191         	9.252          	4.457
MS.192         	9.235          	4.84
MS.193         	9.215          	4.598
MS.194         	9.198          	4.121
MS.195         	9.18           	4.415
MS.196         	9.16           	3.859
MS.197         	9.142          	4.314
MS.198         	9.125          	3.859
MS.199         	9.105          	4.326
MS.200         	9.087          	4.119
MS.201         	9.07           	4.238
MS.202         	9.052          	4
MS.203         	9.033          	3.73
MS.204         	9.015          	3.621
MS.205         	8.997          	3.557
MS.206         	8.98           	3.636
MS.207         	8.962          	3.543
MS.208         	8.943          	3.392
MS.209         	8.925          	3.567
MS.210         	8.908          	3.358
MS.211         	8.89           	3.527
MS.212         	8.872          	3.251
MS.213         	8.855          	3.134
MS.214         	8.837          	3.078
MS.215         	8.82           	3.275
MS.216         	8.802          	3.013
MS.217         	8.785          	3.12
MS.218         	8.767          	2.868
MS.219         	8.75           	3.114
MS.220         	8.733          	3.025
MS.221         	8.715          	2.937
MS.222         	8.698          	3.037
MS.223         	8.68           	2.975
MS.224         	8.662          	2.967
MS.225         	8.645          	2.921
MS.226         	8.627          	2.876
MS.227         	8.61           	2.842
MS.228         	8.592          	2.753
MS.229         	8.575          	2.776
MS.230         	8.557          	2.689
MS.231         	8.542          	2.576
MS.232         	8.525          	2.618
MS.233         	8.507          	2.759
MS.234         	8.49           	2.721
MS.235         	8.472          	2.538
MS.236         	8.457          	2.496
MS.237         	8.44           	2.641
MS.238         	8.422          	2.528
MS.239         	8.405          	2.401
MS.240         	8.39           	2.288
MS.241         	8.372          	2.342
MS.242         	8.355          	2.457
MS.243         	8.34           	2.445
MS.244         	8.323          	2.288
MS.245         	8.305          	2.32
MS.246         	8.29           	2.208
MS.247         	8.273          	2.048
MS.248         	8.255          	2.173
MS.249         	8.24           	2.316
MS.250         	8.222          	2.133
MS.251         	8.207          	2.143
MS.252         	8.19           	2.012
MS.253         	8.175          	1.96
MS.254         	8.158          	1.974
MS.255         	8.142          	1.881
MS.256         	8.125          	1.956
MS.257         	8.11           	1.919
MS.258         	8.092          	1.75
MS.259         	8.077          	1.859
MS.260         	8.06           	1.807
MS.261         	8.045          	1.811
MS.262         	8.028          	1.893
MS.263         	8.012          	1.706
MS.264         	7.995          	1.797
MS.265         	7.98           	1.845
MS.266         	7.965          	1.638
MS.267         	7.947          	1.704
MS.268         	7.932          	1.72
MS.269         	7.918          	1.593
MS.270         	7.9            	1.664
MS.271         	7.885          	1.674
MS.272         	7.87           	1.591
MS.273         	7.852          	1.605
MS.274         	7.837          	1.509
MS.275         	7.822          	1.345
MS.276         	7.807          	1.333
MS.277         	7.79           	1.466
MS.278         	7.775          	1.444
MS.279         	7.76           	1.482
MS.280         	7.745          	1.41
MS.281         	7.727          	1.36
MS.282         	7.712          	1.376
MS.283         	7.697          	1.384
MS.284         	7.682          	1.239
MS.285         	7.668          	1.172
MS.286         	7.652          	1.128
MS.287         	7.637          	1.259
MS.288         	7.622          	1.136
MS.289         	7.605          	1.106
MS.290         	7.59           	1.192
MS.291         	7.575          	1.16
MS.292         	7.56           	1.231
MS.293         	7.545          	1.114
MS.294         	7.53           	1.037
MS.295         	7.515          	1.037
MS.296         	7.5            	0.947
MS.297         	7.485          	1.088
MS.298         	7.47           	0.898
MS.299         	7.455          	0.949
MS.300         	7.44           	0.933
MS.301         	7.425          	0.83
MS.302         	7.41           	0.781
MS.303         	7.395          	0.808
MS.304         	7.382          	0.802
MS.305         	7.367          	0.872
MS.306         	7.352          	0.949
MS.307         	7.337          	0.794
MS.308         	7.322          	0.761
MS.309         	7.307          	0.711
MS.310         	7.293          	0.673
MS.311         	7.277          	0.747
MS.312         	7.265          	0.725
MS.313         	7.25           	0.697
MS.314         	7.235          	0.715
MS.315         	7.22           	0.669
MS.316         	7.205          	0.602
MS.317         	7.192          	0.669
MS.318         	7.177          	0.6
MS.319         	7.162          	0.645
MS.320         	7.15           	0.657
MS.321         	7.135          	0.638
MS.322         	7.12           	0.578
MS.323         	7.105          	0.62
MS.324         	7.092          	0.62
MS.325         	7.077          	0.584
MS.326         	7.062          	0.596
MS.327         	7.05           	0.52
MS.328         	7.035          	0.564
MS.329         	7.023          	0.552
MS.330         	7.007          	0.495
MS.331         	6.992          	0.536
MS.332         	6.98           	0.485
MS.333         	6.965          	0.485
MS.334         	6.952          	0.459
MS.335         	6.938          	0.471
MS.336         	6.922          	0.397
MS.337         	6.91           	0.469
MS.338         	6.895          	0.365
MS.339         	6.882          	0.443
MS.340         	6.867          	0.369
MS.341         	6.855          	0.451
MS.342         	6.84           	0.395
MS.343         	6.827          	0.334
MS.344         	6.815          	0.294
MS.345         	6.8            	0.373
MS.346         	6.787          	0.389
MS.347         	6.773          	0.338
MS.348         	6.76           	0.306
MS.349         	6.745          	0.24
MS.350         	6.733          	0.274
MS.351         	6.72           	0.389
MS.352         	6.705          	0.165
MS.353         	6.692          	0.254
MS.354         	6.68           	0.31
MS.355         	6.665          	0.238
MS.356         	6.652          	0.207
MS.357         	6.64           	0.26
MS.358         	6.625          	0.24
MS.359         	6.612          	0.205
MS.360         	6.6            	0.236
MS.361         	6.585          	0.218
MS.362         	6.572          	0.207
MS.363         	6.56           	0.191
MS.364         	6.547          	0.183
MS.365         	6.532          	0.052
MS.366         	6.52           	0.105
MS.367         	6.507          	0.085
MS.368         	6.495          	0.179
MS.369         	6.483          	0.133
MS.370         	6.467          	0.062
MS.371         	6.455          	0.079
MS.372         	6.442          	0.036
MS.373         	6.43           	0.125
MS.374         	6.418          	0.028
MS.375         	6.405          	0.056
MS.376         	6.392          	0.054
MS.377         	6.378          	0.185
MS.378         	6.365          	0.054
MS.379         	6.352          	0.036
MS.380         	6.34           	0.056
MS.381         	6.327          	0.058
MS.382         	6.315          	0.123
MS.383         	6.302          	0.052
MS.384         	6.29           	0.044
MS.385         	6.277          	0.026
MS.386         	6.265          	0.024
MS.387         	6.253          	0.038
MS.388         	6.24           	0.038
MS.389         	6.227          	0.026
MS.390         	6.215          	0.028
MS.391         	6.202          	0.024
MS.392         	6.19           	0.026
MS.393         	6.177          	0.02
MS.394         	6.165          	0.022
MS.395         	6.152          	0.024
MS.396         	6.14           	0.024
MS.397         	6.128          	0.024
MS.398         	6.115          	0.024
MS.399         	6.105          	0.024
MS.400         	6.092          	0.026
MS.401         	6.08           	0.026
MS.402         	6.067          	0.026
MS.403         	6.055          	0.022
MS.404         	6.043          	0.022
MS.405         	6.03           	0.02
MS.406         	6.02           	0.02
MS.407         	6.007          	0.028
MS.408         	5.995          	0.026
MS.409         	5.983          	0.02
MS.410         	5.97           	0.026
MS.411         	5.96           	0.022
MS.412         	5.947          	0.024
MS.413         	5.935          	0.022
MS.414         	5.922          	0.022
MS.415         	5.912          	0.024
MS.416         	5.9            	0.024
MS.417         	5.887          	0.024
MS.418         	5.878          	0.024
DERIVED EXCITABILITY VARIABLES
Program = QTracP 3/4/2020
Threshold method = 6 (optimised for CAP, using data for present condition only)
SR method = 1 (using actual data values)
6.                 	0.000               	Peak response\(mV)
9.                 	34.5                	Temperature ( C)
17.                	56                  	Age (years)
18.                	2                   	Sex (M=1, F=2)

EXTRA VARIABLES

MScPeak(mV) = 9.79
MScS5(mA) = 6.98
MScS50(mA) = 9.34
MScS95(mA) = 11.22
MScNSteps = 1
MScSteps(%) = 2.2
MScStepMax(%) = 2.2
MScD50 = 49
MScSlope = 4.54
MSFPeakAmp(mV) = 9.8
MSFNUnits = 138
MSFMeanUnitAmp(uV) = 71
MSFHuntTime(m) = 2.6
MSFError(%) = 3.36
MSFNLarge = 40.92
MSFMedianAmp(%) = 0.588
MSFMedianAmp(mV) = 0.0577
MSFHalfAmpAmp(%) = 0.822
MSFHalfAmpAmp(mV) = 0.0806
MSFLargestAmp(%) = 2.34
MSFLargestAmp(mV) = 0.229
MSFMeanRS(%) = 2
MSFOpts = 10106121
MScDuration(min) = 3.7
MSFTraces = 405
MSFSizeLimit(uV) = 24.5
MSFLimitType = 1
MSFSmallestAmp(uV) = 24.8

EXTRA WAVEFORMS


!MScan Model
!138
	1	6.46	0.84	2
	2	6.53	0.41	2
	3	6.6	0.6	2
	4	6.72	0.83	2
	5	6.77	0.3	2
	6	6.81	0.45	2
	7	6.86	0.33	2
	8	6.9	0.36	2
	9	6.94	0.38	2
	10	6.99	0.36	2
	11	7.03	0.41	2
	12	7.09	0.52	2
	13	7.16	0.47	2
	14	7.23	0.44	2
	15	7.26	0.31	2
	16	7.29	0.4	2
	17	7.34	0.37	2
	18	7.38	0.44	2
	19	7.42	0.61	2
	20	7.44	0.26	2
	21	7.47	0.36	2
	22	7.48	0.3	2
	23	7.5	0.33	2
	24	7.56	0.86	2
	25	7.6	0.58	2
	26	7.63	0.7	2
	27	7.67	0.58	2
	28	7.71	0.4	2
	29	7.76	0.78	2
	30	7.8	0.82	2
	31	7.82	0.34	2
	32	7.84	0.28	2
	33	7.86	0.27	2
	34	7.88	0.35	2
	35	7.91	0.58	2
	36	7.95	0.57	2
	37	7.98	0.45	2
	38	8.03	0.53	2
	39	8.07	0.52	2
	40	8.09	0.25	2
	41	8.11	0.36	2
	42	8.13	0.36	2
	43	8.15	0.37	2
	44	8.18	0.48	2
	45	8.2	0.33	2
	46	8.23	0.66	2
	47	8.27	0.74	2
	48	8.3	0.51	2
	49	8.32	0.36	2
	50	8.34	0.38	2
	51	8.36	0.43	2
	52	8.39	0.59	2
	53	8.42	0.82	2
	54	8.46	0.59	2
	55	8.48	0.35	2
	56	8.5	0.46	2
	57	8.53	0.5	2
	58	8.54	0.45	2
	59	8.58	0.48	2
	60	8.61	0.58	2
	61	8.66	0.81	2
	62	8.71	0.67	2
	63	8.74	0.47	2
	64	8.77	0.57	2
	65	8.8	0.64	2
	66	8.82	0.55	2
	67	8.85	0.45	2
	68	8.87	0.36	2
	69	8.89	0.64	2
	70	8.91	0.52	2
	71	8.93	0.7	2
	72	8.94	0.67	2
	73	8.96	0.72	2
	74	8.98	0.72	2
	75	9.03	1.7	2
	76	9.08	1.14	2
	77	9.12	2.34	2
	78	9.17	1.65	2
	79	9.19	1.1	2
	80	9.22	0.58	2
	81	9.25	0.99	2
	82	9.3	2.12	2
	83	9.35	1.3	2
	84	9.37	0.54	2
	85	9.39	0.51	2
	86	9.41	0.48	2
	87	9.43	0.62	2
	88	9.46	0.78	2
	89	9.49	0.51	2
	90	9.51	0.58	2
	91	9.54	0.82	2
	92	9.61	1.27	2
	93	9.65	0.7	2
	94	9.68	0.61	2
	95	9.71	0.77	2
	96	9.74	0.65	2
	97	9.75	0.48	2
	98	9.77	0.47	2
	99	9.79	0.42	2
	100	9.81	0.44	2
	101	9.83	0.7	2
	102	9.86	1.17	2
	103	9.9	1.02	2
	104	9.93	0.92	2
	105	9.97	0.82	2
	106	10	0.86	2
	107	10.03	0.95	2
	108	10.09	1.14	2
	109	10.18	1.94	2
	110	10.26	1.38	2
	111	10.31	0.96	2
	112	10.36	1.06	2
	113	10.4	0.88	2
	114	10.45	1.04	2
	115	10.53	1.4	2
	116	10.54	1.3	2
	117	10.57	0.44	2
	118	10.61	1.24	2
	119	10.65	1.15	2
	120	10.7	0.34	2
	121	10.73	0.98	2
	122	10.8	1.14	2
	123	10.84	1.21	2
	124	10.88	1.46	2
	125	10.93	1.49	2
	126	10.94	1.71	2
	127	10.97	1.2	2
	128	11.03	1.54	2
	129	11.09	1.12	2
	130	11.13	0.87	2
	131	11.16	0.82	2
	132	11.21	0.96	2
	133	11.27	0.68	2
	134	11.53	0.63	2
	135	11.71	0.52	2
	136	12.01	0.53	2
	137	12.39	1.01	2
	138	12.69	0.57	2

