File:              	C:\Qtrac\Data\Daniel M Sørensen\MScan multicentre study\Data from centres\Edmonton\MSCC00226D.QZD
Name:              	CA.EDM.NC.5.1
Protocol:          	MSCAN-R2
Date:              	26/2/20
Start time:        	12:42:27
Age:               	53
Sex:               	F
Temperature:       	33.3
S/R sites:         	CP Kn-TA
NC/disease:        	NC
Operator:          	KJ
Comments:
M-SCAN DATA (6.6-1.3m)
Scanpts: 117, 120, 551, 572
Stim. (mA)     	Amp. (mV)
MS.1           	12.5           	7.414
MS.2           	12.5           	7.412
MS.3           	12.5           	7.424
MS.4           	12.5           	7.374
MS.5           	12.5           	7.368
MS.6           	12.5           	7.374
MS.7           	12.5           	7.372
MS.8           	12.5           	7.368
MS.9           	12.5           	7.352
MS.10          	12.5           	7.356
MS.11          	12.5           	7.372
MS.12          	12.5           	7.36
MS.13          	12.5           	7.356
MS.14          	12.5           	7.354
MS.15          	12.5           	7.354
MS.16          	12.5           	7.358
MS.17          	12.5           	7.362
MS.18          	12.5           	7.344
MS.19          	12.5           	7.352
MS.20          	12.5           	7.358
MS.21          	12.5           	7.344
MS.22          	12.5           	7.342
MS.23          	12.45          	7.332
MS.24          	12.425         	7.326
MS.25          	12.4           	7.36
MS.26          	12.375         	7.348
MS.27          	12.35          	7.332
MS.28          	12.325         	7.344
MS.29          	12.302         	7.334
MS.30          	12.278         	7.348
MS.31          	12.252         	7.336
MS.32          	12.227         	7.33
MS.33          	12.202         	7.346
MS.34          	12.18          	7.352
MS.35          	12.155         	7.342
MS.36          	12.13          	7.338
MS.37          	12.108         	7.352
MS.38          	12.082         	7.346
MS.39          	12.057         	7.332
MS.40          	12.035         	7.354
MS.41          	12.01          	7.336
MS.42          	11.985         	7.36
MS.43          	11.962         	7.35
MS.44          	11.938         	7.344
MS.45          	11.915         	7.358
MS.46          	11.89          	7.35
MS.47          	11.867         	7.338
MS.48          	11.842         	7.336
MS.49          	11.82          	7.332
MS.50          	11.795         	7.346
MS.51          	11.773         	7.356
MS.52          	11.747         	7.346
MS.53          	11.725         	7.352
MS.54          	11.702         	7.332
MS.55          	11.677         	7.352
MS.56          	11.655         	7.358
MS.57          	11.632         	7.336
MS.58          	11.608         	7.321
MS.59          	11.585         	7.344
MS.60          	11.562         	7.342
MS.61          	11.54          	7.338
MS.62          	11.515         	7.326
MS.63          	11.492         	7.338
MS.64          	11.47          	7.338
MS.65          	11.447         	7.34
MS.66          	11.425         	7.323
MS.67          	11.403         	7.344
MS.68          	11.377         	7.34
MS.69          	11.355         	7.332
MS.70          	11.332         	7.342
MS.71          	11.31          	7.348
MS.72          	11.287         	7.35
MS.73          	11.265         	7.346
MS.74          	11.242         	7.35
MS.75          	11.22          	7.344
MS.76          	11.197         	7.358
MS.77          	11.175         	7.35
MS.78          	11.153         	7.346
MS.79          	11.13          	7.35
MS.80          	11.108         	7.348
MS.81          	11.087         	7.362
MS.82          	11.065         	7.368
MS.83          	11.042         	7.376
MS.84          	11.02          	7.364
MS.85          	10.997         	7.366
MS.86          	10.975         	7.366
MS.87          	10.955         	7.366
MS.88          	10.932         	7.364
MS.89          	10.91          	7.366
MS.90          	10.887         	7.382
MS.91          	10.867         	7.37
MS.92          	10.845         	7.372
MS.93          	10.823         	7.374
MS.94          	10.802         	7.374
MS.95          	10.78          	7.37
MS.96          	10.76          	7.38
MS.97          	10.738         	7.366
MS.98          	10.715         	7.362
MS.99          	10.695         	7.382
MS.100         	10.672         	7.394
MS.101         	10.653         	7.376
MS.102         	10.63          	7.39
MS.103         	10.61          	7.386
MS.104         	10.587         	7.39
MS.105         	10.568         	7.384
MS.106         	10.545         	7.38
MS.107         	10.525         	7.39
MS.108         	10.502         	7.386
MS.109         	10.483         	7.394
MS.110         	10.462         	7.392
MS.111         	10.44          	7.392
MS.112         	10.42          	7.378
MS.113         	10.4           	7.386
MS.114         	10.377         	7.396
MS.115         	10.358         	7.384
MS.116         	10.337         	7.388
MS.117         	10.318         	7.4
MS.118         	10.295         	7.396
MS.119         	10.275         	7.394
MS.120         	10.255         	7.392
MS.121         	10.235         	7.4
MS.122         	10.212         	7.398
MS.123         	10.193         	7.378
MS.124         	10.172         	7.398
MS.125         	10.153         	7.398
MS.126         	10.132         	7.412
MS.127         	10.113         	7.38
MS.128         	10.092         	7.307
MS.129         	10.073         	7.378
MS.130         	10.052         	7.303
MS.131         	10.032         	7.384
MS.132         	10.012         	7.328
MS.133         	9.992          	7.323
MS.134         	9.972          	7.287
MS.135         	9.952          	7.305
MS.136         	9.932          	7.368
MS.137         	9.912          	7.4
MS.138         	9.892          	7.378
MS.139         	9.872          	7.38
MS.140         	9.852          	7.253
MS.141         	9.832          	7.283
MS.142         	9.812          	7.297
MS.143         	9.792          	7.285
MS.144         	9.775          	7.38
MS.145         	9.755          	7.269
MS.146         	9.735          	7.241
MS.147         	9.715          	7.187
MS.148         	9.695          	7.263
MS.149         	9.677          	7.251
MS.150         	9.657          	7.215
MS.151         	9.637          	7.229
MS.152         	9.62           	7.259
MS.153         	9.6            	7.178
MS.154         	9.58           	7.178
MS.155         	9.562          	7.287
MS.156         	9.542          	7.225
MS.157         	9.523          	7.235
MS.158         	9.505          	7.195
MS.159         	9.485          	7.221
MS.160         	9.465          	7.225
MS.161         	9.448          	7.237
MS.162         	9.427          	7.231
MS.163         	9.41           	7.237
MS.164         	9.39           	7.16
MS.165         	9.372          	7.233
MS.166         	9.352          	7.178
MS.167         	9.335          	7.158
MS.168         	9.315          	7.189
MS.169         	9.297          	7.116
MS.170         	9.278          	7.062
MS.171         	9.26           	7.176
MS.172         	9.242          	7.17
MS.173         	9.222          	7.106
MS.174         	9.205          	7.126
MS.175         	9.188          	7.1
MS.176         	9.167          	7.146
MS.177         	9.15           	7.074
MS.178         	9.132          	6.947
MS.179         	9.113          	7.084
MS.180         	9.095          	7.082
MS.181         	9.077          	7.084
MS.182         	9.057          	6.947
MS.183         	9.04           	7.098
MS.184         	9.023          	7.072
MS.185         	9.005          	6.953
MS.186         	8.988          	6.977
MS.187         	8.967          	6.931
MS.188         	8.95           	6.794
MS.189         	8.932          	7.019
MS.190         	8.915          	7.211
MS.191         	8.898          	6.822
MS.192         	8.88           	6.911
MS.193         	8.863          	6.979
MS.194         	8.845          	6.993
MS.195         	8.825          	6.852
MS.196         	8.807          	6.84
MS.197         	8.79           	7.013
MS.198         	8.773          	7.001
MS.199         	8.755          	6.941
MS.200         	8.738          	7.025
MS.201         	8.72           	6.959
MS.202         	8.702          	6.896
MS.203         	8.685          	6.898
MS.204         	8.67           	7.001
MS.205         	8.653          	6.804
MS.206         	8.635          	6.848
MS.207         	8.617          	6.882
MS.208         	8.6            	6.691
MS.209         	8.582          	6.776
MS.210         	8.565          	6.747
MS.211         	8.547          	6.739
MS.212         	8.53           	6.753
MS.213         	8.515          	6.77
MS.214         	8.497          	6.669
MS.215         	8.48           	6.598
MS.216         	8.462          	6.717
MS.217         	8.448          	6.59
MS.218         	8.43           	6.729
MS.219         	8.412          	6.701
MS.220         	8.395          	6.625
MS.221         	8.38           	6.55
MS.222         	8.363          	6.727
MS.223         	8.345          	6.536
MS.224         	8.33           	6.697
MS.225         	8.312          	6.594
MS.226         	8.295          	6.594
MS.227         	8.28           	6.556
MS.228         	8.262          	6.568
MS.229         	8.245          	6.518
MS.230         	8.23           	6.326
MS.231         	8.212          	6.536
MS.232         	8.198          	6.427
MS.233         	8.18           	6.322
MS.234         	8.165          	6.393
MS.235         	8.148          	6.437
MS.236         	8.132          	6.161
MS.237         	8.115          	6.196
MS.238         	8.1            	6.194
MS.239         	8.082          	6.236
MS.240         	8.068          	6.335
MS.241         	8.05           	6.206
MS.242         	8.035          	6.198
MS.243         	8.017          	6.248
MS.244         	8.002          	6.3
MS.245         	7.987          	6.101
MS.246         	7.97           	6.032
MS.247         	7.955          	6.161
MS.248         	7.938          	6.198
MS.249         	7.922          	6.183
MS.250         	7.907          	6.103
MS.251         	7.89           	6.216
MS.252         	7.875          	6.014
MS.253         	7.86           	5.91
MS.254         	7.845          	6.047
MS.255         	7.827          	5.916
MS.256         	7.812          	6.232
MS.257         	7.797          	5.996
MS.258         	7.782          	6.085
MS.259         	7.765          	6.224
MS.260         	7.75           	5.924
MS.261         	7.735          	6.075
MS.262         	7.72           	5.849
MS.263         	7.705          	5.75
MS.264         	7.688          	5.857
MS.265         	7.672          	5.821
MS.266         	7.657          	5.672
MS.267         	7.642          	5.708
MS.268         	7.628          	5.819
MS.269         	7.612          	5.646
MS.270         	7.597          	5.68
MS.271         	7.582          	5.646
MS.272         	7.567          	5.712
MS.273         	7.552          	5.589
MS.274         	7.535          	5.624
MS.275         	7.52           	5.67
MS.276         	7.505          	5.611
MS.277         	7.49           	5.595
MS.278         	7.475          	5.581
MS.279         	7.462          	5.517
MS.280         	7.447          	5.525
MS.281         	7.432          	5.577
MS.282         	7.418          	5.446
MS.283         	7.402          	5.368
MS.284         	7.387          	5.511
MS.285         	7.372          	5.555
MS.286         	7.357          	5.271
MS.287         	7.342          	5.297
MS.288         	7.327          	5.352
MS.289         	7.312          	5.315
MS.290         	7.3            	5.066
MS.291         	7.285          	5.211
MS.292         	7.27           	5.182
MS.293         	7.255          	5.086
MS.294         	7.24           	5.041
MS.295         	7.227          	4.951
MS.296         	7.212          	5.116
MS.297         	7.197          	4.878
MS.298         	7.182          	4.886
MS.299         	7.168          	4.802
MS.300         	7.155          	4.945
MS.301         	7.14           	4.759
MS.302         	7.125          	4.633
MS.303         	7.112          	4.796
MS.304         	7.097          	4.761
MS.305         	7.082          	4.884
MS.306         	7.07           	4.763
MS.307         	7.055          	4.677
MS.308         	7.04           	4.602
MS.309         	7.027          	4.546
MS.310         	7.012          	4.788
MS.311         	6.997          	4.304
MS.312         	6.985          	4.361
MS.313         	6.97           	4.59
MS.314         	6.957          	4.379
MS.315         	6.942          	4.334
MS.316         	6.93           	4.536
MS.317         	6.915          	4.435
MS.318         	6.902          	3.986
MS.319         	6.887          	4.161
MS.320         	6.875          	4.123
MS.321         	6.86           	3.881
MS.322         	6.847          	4.059
MS.323         	6.832          	4.204
MS.324         	6.82           	3.954
MS.325         	6.805          	4.183
MS.326         	6.793          	4.123
MS.327         	6.777          	3.99
MS.328         	6.765          	3.962
MS.329         	6.75           	3.867
MS.330         	6.737          	3.726
MS.331         	6.725          	3.875
MS.332         	6.71           	3.714
MS.333         	6.697          	3.507
MS.334         	6.685          	3.716
MS.335         	6.67           	3.364
MS.336         	6.657          	3.744
MS.337         	6.645          	3.468
MS.338         	6.63           	3.352
MS.339         	6.617          	3.233
MS.340         	6.605          	3.335
MS.341         	6.59           	3.406
MS.342         	6.577          	3.182
MS.343         	6.565          	3.18
MS.344         	6.552          	2.894
MS.345         	6.537          	3.098
MS.346         	6.525          	3.047
MS.347         	6.512          	2.959
MS.348         	6.5            	2.929
MS.349         	6.487          	2.955
MS.350         	6.472          	2.878
MS.351         	6.46           	2.983
MS.352         	6.447          	3.045
MS.353         	6.435          	2.711
MS.354         	6.422          	2.832
MS.355         	6.41           	2.804
MS.356         	6.398          	2.814
MS.357         	6.382          	2.713
MS.358         	6.37           	2.699
MS.359         	6.358          	2.598
MS.360         	6.345          	2.508
MS.361         	6.332          	2.659
MS.362         	6.32           	2.483
MS.363         	6.307          	2.59
MS.364         	6.295          	2.564
MS.365         	6.282          	2.516
MS.366         	6.27           	2.514
MS.367         	6.257          	2.463
MS.368         	6.245          	2.584
MS.369         	6.233          	2.28
MS.370         	6.22           	2.502
MS.371         	6.207          	2.361
MS.372         	6.195          	2.071
MS.373         	6.182          	2.25
MS.374         	6.17           	2.266
MS.375         	6.157          	2.111
MS.376         	6.145          	1.968
MS.377         	6.132          	2.01
MS.378         	6.12           	2.121
MS.379         	6.11           	2.113
MS.380         	6.097          	1.885
MS.381         	6.085          	1.867
MS.382         	6.072          	1.803
MS.383         	6.06           	1.702
MS.384         	6.047          	1.952
MS.385         	6.035          	1.621
MS.386         	6.025          	1.774
MS.387         	6.012          	1.702
MS.388         	6              	1.787
MS.389         	5.987          	1.71
MS.390         	5.975          	1.668
MS.391         	5.965          	1.599
MS.392         	5.952          	1.531
MS.393         	5.94           	1.776
MS.394         	5.927          	1.676
MS.395         	5.918          	1.67
MS.396         	5.905          	1.398
MS.397         	5.892          	1.462
MS.398         	5.88           	1.416
MS.399         	5.87           	1.482
MS.400         	5.858          	1.545
MS.401         	5.845          	1.142
MS.402         	5.835          	1.061
MS.403         	5.822          	1.146
MS.404         	5.81           	1.321
MS.405         	5.8            	1.065
MS.406         	5.787          	1.293
MS.407         	5.775          	0.959
MS.408         	5.765          	1.239
MS.409         	5.753          	1.068
MS.410         	5.742          	1.166
MS.411         	5.73           	0.947
MS.412         	5.717          	0.935
MS.413         	5.707          	0.826
MS.414         	5.695          	0.864
MS.415         	5.685          	0.951
MS.416         	5.672          	0.788
MS.417         	5.662          	0.914
MS.418         	5.65           	0.816
MS.419         	5.64           	0.806
MS.420         	5.628          	0.727
MS.421         	5.617          	0.697
MS.422         	5.605          	0.641
MS.423         	5.595          	0.693
MS.424         	5.582          	0.542
MS.425         	5.572          	0.626
MS.426         	5.56           	0.641
MS.427         	5.55           	0.532
MS.428         	5.537          	0.578
MS.429         	5.527          	0.594
MS.430         	5.517          	0.6
MS.431         	5.505          	0.477
MS.432         	5.495          	0.602
MS.433         	5.483          	0.502
MS.434         	5.472          	0.397
MS.435         	5.463          	0.526
MS.436         	5.45           	0.602
MS.437         	5.44           	0.485
MS.438         	5.43           	0.403
MS.439         	5.418          	0.417
MS.440         	5.407          	0.445
MS.441         	5.398          	0.389
MS.442         	5.385          	0.397
MS.443         	5.375          	0.357
MS.444         	5.365          	0.421
MS.445         	5.352          	0.417
MS.446         	5.342          	0.375
MS.447         	5.332          	0.338
MS.448         	5.322          	0.266
MS.449         	5.31           	0.306
MS.450         	5.3            	0.292
MS.451         	5.29           	0.262
MS.452         	5.28           	0.228
MS.453         	5.267          	0.314
MS.454         	5.257          	0.272
MS.455         	5.247          	0.258
MS.456         	5.237          	0.238
MS.457         	5.227          	0.234
MS.458         	5.215          	0.266
MS.459         	5.205          	0.226
MS.460         	5.195          	0.222
MS.461         	5.185          	0.185
MS.462         	5.175          	0.187
MS.463         	5.165          	0.151
MS.464         	5.155          	0.181
MS.465         	5.142          	0.181
MS.466         	5.132          	0.177
MS.467         	5.122          	0.133
MS.468         	5.112          	0.115
MS.469         	5.102          	0.187
MS.470         	5.092          	0.177
MS.471         	5.082          	0.089
MS.472         	5.072          	0.123
MS.473         	5.062          	0.125
MS.474         	5.052          	0.123
MS.475         	5.043          	0.137
MS.476         	5.032          	0.147
MS.477         	5.023          	0.109
MS.478         	5.012          	0.143
MS.479         	5.003          	0.125
MS.480         	4.992          	0.115
MS.481         	4.983          	0.087
MS.482         	4.972          	0.087
MS.483         	4.963          	0.081
MS.484         	4.952          	0.062
MS.485         	4.943          	0.111
MS.486         	4.932          	0.07
MS.487         	4.922          	0.129
MS.488         	4.912          	0.109
MS.489         	4.902          	0.07
MS.490         	4.892          	0.062
MS.491         	4.882          	0.064
MS.492         	4.872          	0.07
MS.493         	4.862          	0.058
MS.494         	4.852          	0.068
MS.495         	4.845          	0.066
MS.496         	4.835          	0.054
MS.497         	4.825          	0.052
MS.498         	4.815          	0.064
MS.499         	4.805          	0.056
MS.500         	4.795          	0.064
MS.501         	4.785          	0.054
MS.502         	4.777          	0.052
MS.503         	4.767          	0.052
MS.504         	4.757          	0.042
MS.505         	4.747          	0.044
MS.506         	4.737          	0.038
MS.507         	4.73           	0.038
MS.508         	4.72           	0.046
MS.509         	4.71           	0.046
MS.510         	4.7            	0.042
MS.511         	4.693          	0.046
MS.512         	4.682          	0.038
MS.513         	4.673          	0.04
MS.514         	4.662          	0.036
MS.515         	4.655          	0.052
MS.516         	4.645          	0.036
MS.517         	4.635          	0.032
MS.518         	4.625          	0.036
MS.519         	4.617          	0.036
MS.520         	4.608          	0.03
MS.521         	4.597          	0.034
MS.522         	4.59           	0.034
MS.523         	4.58           	0.03
MS.524         	4.57           	0.028
MS.525         	4.562          	0.028
MS.526         	4.552          	0.03
MS.527         	4.543          	0.038
MS.528         	4.535          	0.034
MS.529         	4.525          	0.034
MS.530         	4.517          	0.028
MS.531         	4.507          	0.04
MS.532         	4.497          	0.028
MS.533         	4.49           	0.03
MS.534         	4.48           	0.03
MS.535         	4.472          	0.028
MS.536         	4.463          	0.03
MS.537         	4.452          	0.028
MS.538         	4.445          	0.03
MS.539         	4.435          	0.026
MS.540         	4.427          	0.028
MS.541         	4.418          	0.03
MS.542         	4.41           	0.028
MS.543         	4.4            	0.026
MS.544         	4.392          	0.028
MS.545         	4.382          	0.03
MS.546         	4.375          	0.028
MS.547         	4.365          	0.03
MS.548         	4.358          	0.032
MS.549         	4.347          	0.03
MS.550         	4.34           	0.026
MS.551         	4.33           	0.03
MS.552         	4.322          	0.026
MS.553         	4.312          	0.026
MS.554         	4.305          	0.024
MS.555         	4.295          	0.026
MS.556         	4.287          	0.024
MS.557         	4.28           	0.026
MS.558         	4.27           	0.022
MS.559         	4.262          	0.026
MS.560         	4.253          	0.024
MS.561         	4.245          	0.026
MS.562         	4.237          	0.026
MS.563         	4.227          	0.024
MS.564         	4.22           	0.03
MS.565         	4.21           	0.03
MS.566         	4.202          	0.024
MS.567         	4.195          	0.028
MS.568         	4.185          	0.024
MS.569         	4.177          	0.026
MS.570         	4.17           	0.026
MS.571         	4.16           	0.024
MS.572         	4.152          	0.024
DERIVED EXCITABILITY VARIABLES
Program = QTracP 3/4/2020
Threshold method = 6 (optimised for CAP, using data for present condition only)
SR method = 1 (using actual data values)
6.                 	0.000               	Peak response\(mV)
9.                 	33.3                	Temperature ( C)
17.                	53                  	Age (years)
18.                	2                   	Sex (M=1, F=2)

EXTRA VARIABLES

MScPeak(mV) = 7.34
MScS5(mA) = 5.36
MScS50(mA) = 6.68
MScS95(mA) = 8.9
MScNSteps = 1
MScSteps(%) = 2.8
MScStepMax(%) = 2.8
MScD50 = 51
MScSlope = 5
MSFPeakAmp(mV) = 7.37
MSFNUnits = 112
MSFMeanUnitAmp(uV) = 65.8
MSFHuntTime(m) = 2.07
MSFError(%) = 3.14
MSFNLarge = 39.15
MSFMedianAmp(%) = 0.804
MSFMedianAmp(mV) = 0.0593
MSFHalfAmpAmp(%) = 0.986
MSFHalfAmpAmp(mV) = 0.0727
MSFLargestAmp(%) = 2.46
MSFLargestAmp(mV) = 0.181
MSFMeanRS(%) = 2
MSFOpts = 10106121
MScDuration(min) = 5.3
MSFTraces = 456
MSFSizeLimit(uV) = 18.4
MSFLimitType = 1
MSFSmallestAmp(uV) = 20.5

EXTRA WAVEFORMS


!MScan Model
!112
	1	4.74	0.31	2
	2	4.89	0.41	2
	3	4.97	0.31	2
	4	5.05	0.39	2
	5	5.09	0.32	2
	6	5.13	0.29	2
	7	5.16	0.28	2
	8	5.22	0.53	2
	9	5.25	0.46	2
	10	5.29	0.52	2
	11	5.32	0.41	2
	12	5.35	0.44	2
	13	5.38	0.45	2
	14	5.42	0.56	2
	15	5.45	0.6	2
	16	5.48	0.63	2
	17	5.51	0.55	2
	18	5.54	0.54	2
	19	5.57	0.62	2
	20	5.59	0.73	2
	21	5.62	0.78	2
	22	5.65	0.82	2
	23	5.68	0.8	2
	24	5.71	0.88	2
	25	5.73	0.99	2
	26	5.76	1.04	2
	27	5.79	1.06	2
	28	5.82	1	2
	29	5.85	1.11	2
	30	5.88	1.28	2
	31	5.92	1.2	2
	32	5.96	1.26	2
	33	5.99	1.33	2
	34	6.02	1.19	2
	35	6.05	1.15	2
	36	6.08	0.99	2
	37	6.1	0.61	2
	38	6.12	0.64	2
	39	6.13	0.67	2
	40	6.15	0.72	2
	41	6.17	0.71	2
	42	6.19	0.7	2
	43	6.21	0.79	2
	44	6.23	0.78	2
	45	6.25	0.76	2
	46	6.28	0.82	2
	47	6.3	0.79	2
	48	6.32	0.78	2
	49	6.36	1.14	2
	50	6.39	0.97	2
	51	6.41	0.67	2
	52	6.43	0.71	2
	53	6.45	0.74	2
	54	6.47	0.69	2
	55	6.49	0.76	2
	56	6.51	0.83	2
	57	6.53	0.73	2
	58	6.55	0.75	2
	59	6.56	0.78	2
	60	6.58	0.81	2
	61	6.6	0.77	2
	62	6.62	0.8	2
	63	6.63	0.83	2
	64	6.66	0.91	2
	65	6.68	0.99	2
	66	6.71	0.94	2
	67	6.73	1.26	2
	68	6.76	1.29	2
	69	6.79	1.42	2
	70	6.83	1.55	2
	71	6.87	1.55	2
	72	6.91	1.53	2
	73	6.95	1.53	2
	74	7	1.27	2
	75	7.03	1.05	2
	76	7.06	1.19	2
	77	7.1	1.32	2
	78	7.13	1.1	2
	79	7.16	0.8	2
	80	7.19	0.85	2
	81	7.21	0.79	2
	82	7.23	0.71	2
	83	7.25	0.69	2
	84	7.27	0.63	2
	85	7.29	0.53	2
	86	7.31	0.51	2
	87	7.33	0.52	2
	88	7.36	0.68	2
	89	7.38	0.73	2
	90	7.41	0.64	2
	91	7.44	0.98	2
	92	7.49	1.05	2
	93	7.54	1	2
	94	7.59	1.22	2
	95	7.66	1.14	2
	96	7.72	1.45	2
	97	7.81	1.13	2
	98	7.97	1.55	2
	99	8.05	1.7	2
	100	8.12	1.06	2
	101	8.17	0.76	2
	102	8.23	0.85	2
	103	8.3	0.91	2
	104	8.38	1.15	2
	105	8.46	1.32	2
	106	8.56	1.15	2
	107	8.75	1.53	2
	108	9.14	2.46	2
	109	9.25	0.72	2
	110	9.43	0.91	2
	111	9.72	1.12	2
	112	9.97	0.87	2

