File:              	C:\Qtrac\Data\Daniel M Sørensen\MScan multicentre study\Data from centres\Edmonton\MSCC00226C.QZD
Name:              	CA.EDM.NC.5.1
Protocol:          	MSCAN-R2
Date:              	26/2/20
Start time:        	12:29:20
Age:               	53
Sex:               	F
Temperature:       	33.8
S/R sites:         	Ulnar Wr-ADM
NC/disease:        	NC
Operator:          	KJ
Comments:
M-SCAN DATA (6.6-1.4m)
Scanpts: 15, 18, 538, 559
Stim. (mA)     	Amp. (mV)
MS.1           	27.5           	8.764
MS.2           	27.5           	8.741
MS.3           	27.5           	8.772
MS.4           	27.5           	8.745
MS.5           	27.5           	8.739
MS.6           	27.5           	8.721
MS.7           	27.5           	8.826
MS.8           	27.5           	8.693
MS.9           	27.5           	8.661
MS.10          	27.5           	8.77
MS.11          	27.5           	8.766
MS.12          	27.5           	8.725
MS.13          	27.5           	8.764
MS.14          	27.5           	8.81
MS.15          	27.5           	8.798
MS.16          	27.5           	8.743
MS.17          	27.5           	8.816
MS.18          	27.5           	8.782
MS.19          	27.5           	8.798
MS.20          	27.5           	8.798
MS.21          	27.5           	8.814
MS.22          	27.5           	8.623
MS.23          	27.39          	8.715
MS.24          	27.335         	8.617
MS.25          	27.28          	8.675
MS.26          	27.227         	8.758
MS.27          	27.172         	8.645
MS.28          	27.118         	8.611
MS.29          	27.062         	8.717
MS.30          	27.01          	8.633
MS.31          	26.955         	8.713
MS.32          	26.903         	8.743
MS.33          	26.847         	8.697
MS.34          	26.795         	8.677
MS.35          	26.74          	8.687
MS.36          	26.688         	8.596
MS.37          	26.635         	8.647
MS.38          	26.58          	8.641
MS.39          	26.528         	8.695
MS.40          	26.475         	8.554
MS.41          	26.422         	8.57
MS.42          	26.37          	8.685
MS.43          	26.315         	8.564
MS.44          	26.262         	8.611
MS.45          	26.21          	8.494
MS.46          	26.157         	8.53
MS.47          	26.108         	8.572
MS.48          	26.055         	8.5
MS.49          	26.002         	8.596
MS.50          	25.95          	8.435
MS.51          	25.897         	8.359
MS.52          	25.847         	8.371
MS.53          	25.795         	8.437
MS.54          	25.743         	8.411
MS.55          	25.692         	8.345
MS.56          	25.64          	8.365
MS.57          	25.59          	8.363
MS.58          	25.538         	8.308
MS.59          	25.487         	8.327
MS.60          	25.438         	8.29
MS.61          	25.385         	8.177
MS.62          	25.335         	8.316
MS.63          	25.285         	8.238
MS.64          	25.233         	8.212
MS.65          	25.182         	8.214
MS.66          	25.132         	8.244
MS.67          	25.082         	8.107
MS.68          	25.032         	8.103
MS.69          	24.983         	8.151
MS.70          	24.932         	8.143
MS.71          	24.882         	8.206
MS.72          	24.832         	8.212
MS.73          	24.782         	8.077
MS.74          	24.735         	8.117
MS.75          	24.685         	8.036
MS.76          	24.635         	8.182
MS.77          	24.585         	8.252
MS.78          	24.538         	8.224
MS.79          	24.487         	8.165
MS.80          	24.44          	8.091
MS.81          	24.39          	8.047
MS.82          	24.342         	8.034
MS.83          	24.292         	8.095
MS.84          	24.245         	8.075
MS.85          	24.195         	8.065
MS.86          	24.147         	7.992
MS.87          	24.1           	7.962
MS.88          	24.05          	7.964
MS.89          	24.002         	7.942
MS.90          	23.955         	7.94
MS.91          	23.907         	7.928
MS.92          	23.86          	7.952
MS.93          	23.812         	7.833
MS.94          	23.765         	7.835
MS.95          	23.717         	7.962
MS.96          	23.67          	7.855
MS.97          	23.622         	7.958
MS.98          	23.575         	7.819
MS.99          	23.528         	7.849
MS.100         	23.48          	7.914
MS.101         	23.435         	7.765
MS.102         	23.387         	7.825
MS.103         	23.34          	7.672
MS.104         	23.292         	7.68
MS.105         	23.247         	7.767
MS.106         	23.2           	7.781
MS.107         	23.155         	7.726
MS.108         	23.108         	7.668
MS.109         	23.062         	7.791
MS.110         	23.015         	7.674
MS.111         	22.97          	7.688
MS.112         	22.925         	7.648
MS.113         	22.877         	7.628
MS.114         	22.832         	7.557
MS.115         	22.788         	7.543
MS.116         	22.743         	7.724
MS.117         	22.695         	7.648
MS.118         	22.65          	7.605
MS.119         	22.605         	7.491
MS.120         	22.56          	7.454
MS.121         	22.515         	7.422
MS.122         	22.47          	7.394
MS.123         	22.425         	7.398
MS.124         	22.38          	7.39
MS.125         	22.335         	7.464
MS.126         	22.29          	7.553
MS.127         	22.247         	7.303
MS.128         	22.202         	7.46
MS.129         	22.157         	7.311
MS.130         	22.112         	7.473
MS.131         	22.07          	7.384
MS.132         	22.025         	7.38
MS.133         	21.98          	7.434
MS.134         	21.938         	7.428
MS.135         	21.892         	7.41
MS.136         	21.85          	7.311
MS.137         	21.805         	7.356
MS.138         	21.762         	7.112
MS.139         	21.72          	7.372
MS.140         	21.675         	7.311
MS.141         	21.632         	7.259
MS.142         	21.59          	7.311
MS.143         	21.545         	7.205
MS.144         	21.502         	7.233
MS.145         	21.46          	7.225
MS.146         	21.417         	7.158
MS.147         	21.375         	7.205
MS.148         	21.333         	7.211
MS.149         	21.29          	7.239
MS.150         	21.247         	7.241
MS.151         	21.205         	7.1
MS.152         	21.163         	7.136
MS.153         	21.12          	7.138
MS.154         	21.077         	7.209
MS.155         	21.035         	7.142
MS.156         	20.993         	7.118
MS.157         	20.95          	7.094
MS.158         	20.91          	7.138
MS.159         	20.868         	7.092
MS.160         	20.825         	7.152
MS.161         	20.785         	7.054
MS.162         	20.743         	7.037
MS.163         	20.7           	7.011
MS.164         	20.66          	7.082
MS.165         	20.618         	7.044
MS.166         	20.577         	7.003
MS.167         	20.535         	6.965
MS.168         	20.495         	6.977
MS.169         	20.455         	7.033
MS.170         	20.413         	6.995
MS.171         	20.372         	6.979
MS.172         	20.333         	7.011
MS.173         	20.29          	7.009
MS.174         	20.25          	6.937
MS.175         	20.21          	6.991
MS.176         	20.17          	6.937
MS.177         	20.13          	6.935
MS.178         	20.09          	6.931
MS.179         	20.05          	6.939
MS.180         	20.01          	6.939
MS.181         	19.97          	6.915
MS.182         	19.93          	6.965
MS.183         	19.89          	6.903
MS.184         	19.85          	6.959
MS.185         	19.81          	6.919
MS.186         	19.77          	6.931
MS.187         	19.73          	6.927
MS.188         	19.692         	6.917
MS.189         	19.653         	6.901
MS.190         	19.612         	6.913
MS.191         	19.573         	6.907
MS.192         	19.535         	6.905
MS.193         	19.495         	6.911
MS.194         	19.458         	6.858
MS.195         	19.417         	6.866
MS.196         	19.38          	6.86
MS.197         	19.34          	6.828
MS.198         	19.302         	6.852
MS.199         	19.262         	6.868
MS.200         	19.225         	6.731
MS.201         	19.185         	6.802
MS.202         	19.147         	6.814
MS.203         	19.11          	6.768
MS.204         	19.07          	6.838
MS.205         	19.032         	6.81
MS.206         	18.995         	6.86
MS.207         	18.958         	6.802
MS.208         	18.92          	6.822
MS.209         	18.882         	6.816
MS.210         	18.845         	6.808
MS.211         	18.805         	6.792
MS.212         	18.767         	6.792
MS.213         	18.73          	6.83
MS.214         	18.692         	6.784
MS.215         	18.657         	6.818
MS.216         	18.62          	6.84
MS.217         	18.583         	6.764
MS.218         	18.545         	6.822
MS.219         	18.507         	6.808
MS.220         	18.47          	6.866
MS.221         	18.432         	6.784
MS.222         	18.397         	6.768
MS.223         	18.36          	6.778
MS.224         	18.323         	6.846
MS.225         	18.288         	6.782
MS.226         	18.25          	6.86
MS.227         	18.215         	6.81
MS.228         	18.177         	6.866
MS.229         	18.14          	6.862
MS.230         	18.105         	6.868
MS.231         	18.067         	6.864
MS.232         	18.032         	6.848
MS.233         	17.997         	6.854
MS.234         	17.96          	6.832
MS.235         	17.925         	6.802
MS.236         	17.89          	6.828
MS.237         	17.852         	6.842
MS.238         	17.817         	6.778
MS.239         	17.782         	6.749
MS.240         	17.747         	6.778
MS.241         	17.71          	6.78
MS.242         	17.675         	6.796
MS.243         	17.64          	6.77
MS.244         	17.605         	6.82
MS.245         	17.57          	6.758
MS.246         	17.535         	6.792
MS.247         	17.5           	6.774
MS.248         	17.465         	6.78
MS.249         	17.43          	6.766
MS.250         	17.395         	6.751
MS.251         	17.36          	6.774
MS.252         	17.325         	6.739
MS.253         	17.29          	6.731
MS.254         	17.257         	6.701
MS.255         	17.222         	6.695
MS.256         	17.188         	6.735
MS.257         	17.153         	6.671
MS.258         	17.12          	6.719
MS.259         	17.085         	6.651
MS.260         	17.05          	6.693
MS.261         	17.017         	6.741
MS.262         	16.983         	6.758
MS.263         	16.948         	6.737
MS.264         	16.915         	6.681
MS.265         	16.88          	6.729
MS.266         	16.847         	6.705
MS.267         	16.812         	6.615
MS.268         	16.78          	6.612
MS.269         	16.747         	6.635
MS.270         	16.712         	6.663
MS.271         	16.68          	6.677
MS.272         	16.645         	6.663
MS.273         	16.612         	6.604
MS.274         	16.58          	6.536
MS.275         	16.547         	6.542
MS.276         	16.512         	6.51
MS.277         	16.48          	6.447
MS.278         	16.448         	6.449
MS.279         	16.415         	6.665
MS.280         	16.382         	6.639
MS.281         	16.35          	6.443
MS.282         	16.317         	6.506
MS.283         	16.285         	6.594
MS.284         	16.253         	6.498
MS.285         	16.22          	6.518
MS.286         	16.188         	6.508
MS.287         	16.155         	6.226
MS.288         	16.122         	6.453
MS.289         	16.09          	6.451
MS.290         	16.057         	6.449
MS.291         	16.025         	6.474
MS.292         	15.992         	6.508
MS.293         	15.962         	6.22
MS.294         	15.93          	6.433
MS.295         	15.898         	6.147
MS.296         	15.865         	6.101
MS.297         	15.835         	6.059
MS.298         	15.802         	6.067
MS.299         	15.77          	5.94
MS.300         	15.74          	5.976
MS.301         	15.707         	6.047
MS.302         	15.677         	6.063
MS.303         	15.645         	5.96
MS.304         	15.615         	5.99
MS.305         	15.582         	6.073
MS.306         	15.552         	5.863
MS.307         	15.52          	5.934
MS.308         	15.49          	5.978
MS.309         	15.46          	6.006
MS.310         	15.427         	6.053
MS.311         	15.398         	5.688
MS.312         	15.367         	5.805
MS.313         	15.335         	5.628
MS.314         	15.305         	5.613
MS.315         	15.275         	5.567
MS.316         	15.245         	5.662
MS.317         	15.212         	5.718
MS.318         	15.182         	5.605
MS.319         	15.152         	5.67
MS.320         	15.122         	5.483
MS.321         	15.092         	5.513
MS.322         	15.062         	5.448
MS.323         	15.032         	5.545
MS.324         	15.002         	5.47
MS.325         	14.972         	5.448
MS.326         	14.943         	5.406
MS.327         	14.912         	5.446
MS.328         	14.882         	5.303
MS.329         	14.852         	5.38
MS.330         	14.822         	5.374
MS.331         	14.792         	5.221
MS.332         	14.765         	5.408
MS.333         	14.735         	5.251
MS.334         	14.705         	5.16
MS.335         	14.675         	5.305
MS.336         	14.645         	5.07
MS.337         	14.617         	5.09
MS.338         	14.587         	5.058
MS.339         	14.557         	5.215
MS.340         	14.53          	4.961
MS.341         	14.5           	5.066
MS.342         	14.472         	4.943
MS.343         	14.443         	4.838
MS.344         	14.412         	4.788
MS.345         	14.385         	4.715
MS.346         	14.355         	4.665
MS.347         	14.327         	4.385
MS.348         	14.3           	4.401
MS.349         	14.27          	4.576
MS.350         	14.242         	4.679
MS.351         	14.212         	4.135
MS.352         	14.185         	4.204
MS.353         	14.157         	4.502
MS.354         	14.127         	4.594
MS.355         	14.1           	4.417
MS.356         	14.072         	3.837
MS.357         	14.045         	3.829
MS.358         	14.015         	4.077
MS.359         	13.987         	3.901
MS.360         	13.96          	3.738
MS.361         	13.932         	3.954
MS.362         	13.905         	3.746
MS.363         	13.877         	4.044
MS.364         	13.847         	3.775
MS.365         	13.82          	3.847
MS.366         	13.792         	3.573
MS.367         	13.765         	2.832
MS.368         	13.737         	3.062
MS.369         	13.71          	3.039
MS.370         	13.682         	3.194
MS.371         	13.655         	2.671
MS.372         	13.63          	2.578
MS.373         	13.602         	3.146
MS.374         	13.575         	2.786
MS.375         	13.547         	2.697
MS.376         	13.52          	2.798
MS.377         	13.492         	2.433
MS.378         	13.465         	2.689
MS.379         	13.44          	2.26
MS.380         	13.412         	1.807
MS.381         	13.385         	2.407
MS.382         	13.36          	2.048
MS.383         	13.332         	1.911
MS.384         	13.305         	1.994
MS.385         	13.28          	2.034
MS.386         	13.252         	2.018
MS.387         	13.225         	1.666
MS.388         	13.2           	1.837
MS.389         	13.172         	1.597
MS.390         	13.148         	1.722
MS.391         	13.12          	1.41
MS.392         	13.095         	1.4
MS.393         	13.068         	1.307
MS.394         	13.042         	1.198
MS.395         	13.015         	0.898
MS.396         	12.99          	0.731
MS.397         	12.965         	0.87
MS.398         	12.938         	1.206
MS.399         	12.912         	0.963
MS.400         	12.887         	1.057
MS.401         	12.86          	1.017
MS.402         	12.835         	0.673
MS.403         	12.81          	0.759
MS.404         	12.785         	0.878
MS.405         	12.757         	0.705
MS.406         	12.733         	0.673
MS.407         	12.707         	0.55
MS.408         	12.682         	0.697
MS.409         	12.657         	0.578
MS.410         	12.632         	0.542
MS.411         	12.605         	0.449
MS.412         	12.58          	0.55
MS.413         	12.555         	0.445
MS.414         	12.53          	0.401
MS.415         	12.505         	0.469
MS.416         	12.48          	0.463
MS.417         	12.455         	0.606
MS.418         	12.43          	0.439
MS.419         	12.405         	0.449
MS.420         	12.38          	0.52
MS.421         	12.358         	0.425
MS.422         	12.332         	0.35
MS.423         	12.307         	0.357
MS.424         	12.282         	0.292
MS.425         	12.257         	0.137
MS.426         	12.233         	0.246
MS.427         	12.21          	0.145
MS.428         	12.185         	0.252
MS.429         	12.16          	0.238
MS.430         	12.135         	0.238
MS.431         	12.113         	0.135
MS.432         	12.087         	0.119
MS.433         	12.062         	0.133
MS.434         	12.04          	0.137
MS.435         	12.015         	0.238
MS.436         	11.992         	0.266
MS.437         	11.967         	0.121
MS.438         	11.943         	0.129
MS.439         	11.92          	0.151
MS.440         	11.895         	0.151
MS.441         	11.872         	0.129
MS.442         	11.847         	0.129
MS.443         	11.825         	0.153
MS.444         	11.8           	0.127
MS.445         	11.778         	0.125
MS.446         	11.755         	0.123
MS.447         	11.73          	0.121
MS.448         	11.707         	0.131
MS.449         	11.682         	0.119
MS.450         	11.66          	0.135
MS.451         	11.637         	0.131
MS.452         	11.613         	0.135
MS.453         	11.59          	0.139
MS.454         	11.568         	0.133
MS.455         	11.545         	0.157
MS.456         	11.52          	0.131
MS.457         	11.497         	0.135
MS.458         	11.475         	0.135
MS.459         	11.452         	0.127
MS.460         	11.43          	0.141
MS.461         	11.407         	0.133
MS.462         	11.382         	0.137
MS.463         	11.36          	0.129
MS.464         	11.337         	0.127
MS.465         	11.315         	0.143
MS.466         	11.292         	0.143
MS.467         	11.27          	0.141
MS.468         	11.247         	0.141
MS.469         	11.225         	0.145
MS.470         	11.202         	0.129
MS.471         	11.18          	0.139
MS.472         	11.157         	0.137
MS.473         	11.135         	0.139
MS.474         	11.113         	0.133
MS.475         	11.092         	0.137
MS.476         	11.07          	0.137
MS.477         	11.047         	0.129
MS.478         	11.025         	0.135
MS.479         	11.002         	0.137
MS.480         	10.98          	0.127
MS.481         	10.96          	0.133
MS.482         	10.938         	0.123
MS.483         	10.915         	0.139
MS.484         	10.892         	0.137
MS.485         	10.872         	0.139
MS.486         	10.85          	0.137
MS.487         	10.827         	0.133
MS.488         	10.807         	0.127
MS.489         	10.785         	0.137
MS.490         	10.762         	0.129
MS.491         	10.742         	0.129
MS.492         	10.72          	0.141
MS.493         	10.7           	0.137
MS.494         	10.677         	0.137
MS.495         	10.657         	0.129
MS.496         	10.635         	0.141
MS.497         	10.615         	0.131
MS.498         	10.592         	0.127
MS.499         	10.573         	0.085
MS.500         	10.55          	0.123
MS.501         	10.53          	0.068
MS.502         	10.507         	0.073
MS.503         	10.488         	0.125
MS.504         	10.467         	0.073
MS.505         	10.445         	0.07
MS.506         	10.425         	0.07
MS.507         	10.405         	0.058
MS.508         	10.382         	0.079
MS.509         	10.363         	0.073
MS.510         	10.342         	0.06
MS.511         	10.32          	0.062
MS.512         	10.3           	0.121
MS.513         	10.28          	0.06
MS.514         	10.26          	0.058
MS.515         	10.24          	0.077
MS.516         	10.217         	0.06
MS.517         	10.198         	0.064
MS.518         	10.177         	0.07
MS.519         	10.157         	0.075
MS.520         	10.137         	0.062
MS.521         	10.117         	0.06
MS.522         	10.097         	0.075
MS.523         	10.077         	0.07
MS.524         	10.055         	0.06
MS.525         	10.035         	0.05
MS.526         	10.015         	0.062
MS.527         	9.995          	0.062
MS.528         	9.975          	0.064
MS.529         	9.955          	0.075
MS.530         	9.935          	0.052
MS.531         	9.917          	0.052
MS.532         	9.898          	0.05
MS.533         	9.877          	0.052
MS.534         	9.858          	0.05
MS.535         	9.837          	0.052
MS.536         	9.818          	0.064
MS.537         	9.797          	0.052
MS.538         	9.778          	0.054
MS.539         	9.76           	0.064
MS.540         	9.74           	0.054
MS.541         	9.72           	0.054
MS.542         	9.7            	0.052
MS.543         	9.68           	0.064
MS.544         	9.662          	0.056
MS.545         	9.642          	0.052
MS.546         	9.622          	0.05
MS.547         	9.605          	0.048
MS.548         	9.585          	0.054
MS.549         	9.565          	0.052
MS.550         	9.547          	0.054
MS.551         	9.528          	0.048
MS.552         	9.507          	0.054
MS.553         	9.49           	0.048
MS.554         	9.47           	0.054
MS.555         	9.452          	0.05
MS.556         	9.432          	0.054
MS.557         	9.415          	0.052
MS.558         	9.395          	0.052
MS.559         	9.377          	0.056
DERIVED EXCITABILITY VARIABLES
Program = QTracP 3/4/2020
Threshold method = 6 (optimised for CAP, using data for present condition only)
SR method = 1 (using actual data values)
6.                 	0.000               	Peak response\(mV)
9.                 	33.8                	Temperature ( C)
17.                	53                  	Age (years)
18.                	2                   	Sex (M=1, F=2)

EXTRA VARIABLES

MScPeak(mV) = 8.7
MScS5(mA) = 12.48
MScS50(mA) = 14.16
MScS95(mA) = 25.36
MScNSteps = 6
MScSteps(%) = 15.8
MScStepMax(%) = 4.4
MScD50 = 42
MScSlope = 4.75
MSFPeakAmp(mV) = 8.73
MSFNUnits = 126
MSFMeanUnitAmp(uV) = 69.3
MSFHuntTime(m) = 3.23
MSFError(%) = 2.55
MSFNLarge = 31.2
MSFMedianAmp(%) = 0.586
MSFMedianAmp(mV) = 0.0512
MSFHalfAmpAmp(%) = 0.91
MSFHalfAmpAmp(mV) = 0.0795
MSFLargestAmp(%) = 3.92
MSFLargestAmp(mV) = 0.342
MSFMeanRS(%) = 1.98
MSFOpts = 10106121
MScDuration(min) = 5.2
MSFTraces = 545
MSFSizeLimit(uV) = 21.8
MSFLimitType = 1
MSFSmallestAmp(uV) = 22.8

EXTRA WAVEFORMS


!MScan Model
!126
	1	10.5	0.37	2
	2	10.62	0.45	2
	3	12.16	0.76	2
	4	12.22	0.53	2
	5	12.25	0.3	2
	6	12.27	0.37	2
	7	12.3	0.37	2
	8	12.48	1.57	2
	9	12.58	0.79	2
	10	12.65	0.48	2
	11	12.68	0.45	2
	12	12.71	0.5	2
	13	12.84	2.15	2
	14	12.91	1.08	2
	15	12.97	1.31	2
	16	12.98	0.36	2
	17	13	0.36	2
	18	13.02	0.38	2
	19	13.03	0.46	2
	20	13.05	0.6	2
	21	13.07	0.7	2
	22	13.09	0.7	2
	23	13.1	0.6	2
	24	13.11	0.5	2
	25	13.14	0.5	2
	26	13.15	0.5	2
	27	13.16	0.49	2
	28	13.17	0.47	2
	29	13.19	0.41	2
	30	13.2	0.41	2
	31	13.21	0.41	2
	32	13.22	0.41	2
	33	13.26	1.33	2
	34	13.31	1.18	2
	35	13.35	1.34	2
	36	13.39	0.5	2
	37	13.4	1.58	2
	38	13.45	1.24	2
	39	13.52	2.29	2
	40	13.63	3.92	2
	41	13.67	0.78	2
	42	13.7	1.35	2
	43	13.73	1.67	2
	44	13.77	1.79	2
	45	13.86	2.29	2
	46	13.97	2.66	2
	47	14.1	3.26	2
	48	14.2	2.13	2
	49	14.23	0.78	2
	50	14.27	0.94	2
	51	14.31	0.94	2
	52	14.34	0.61	2
	53	14.35	0.41	2
	54	14.37	0.41	2
	55	14.42	0.7	2
	56	14.44	0.43	2
	57	14.46	0.43	2
	58	14.48	0.53	2
	59	14.52	1.08	2
	60	14.57	1.09	2
	61	14.61	0.59	2
	62	14.64	0.47	2
	63	14.68	0.43	2
	64	14.71	0.26	2
	65	14.74	0.39	2
	66	14.78	0.47	2
	67	14.84	0.69	2
	68	14.89	0.51	2
	69	14.96	0.66	2
	70	15.02	0.43	2
	71	15.05	0.32	2
	72	15.15	0.77	2
	73	15.24	0.62	2
	74	15.3	0.85	2
	75	15.36	0.63	2
	76	15.44	1.05	2
	77	15.55	1.12	1.6
	78	15.78	0.66	2
	79	15.82	0.63	2
	80	15.88	3.16	1.6
	81	15.89	1.14	2
	82	16.06	0.82	2
	83	16.63	0.9	2
	84	16.76	0.98	2
	85	17.17	0.66	2
	86	17.33	0.27	2
	87	17.68	0.64	2
	88	19.34	0.55	2
	89	19.45	0.32	2
	90	19.72	0.56	2
	91	20.17	0.45	2
	92	20.44	0.48	2
	93	20.7	0.53	2
	94	20.78	0.31	2
	95	20.95	0.43	2
	96	21.15	0.6	2
	97	21.29	0.32	2
	98	21.4	0.3	2
	99	21.61	0.55	2
	100	21.82	0.91	2
	101	22.36	0.96	2
	102	22.51	0.79	2
	103	22.69	0.76	2
	104	22.84	0.87	2
	105	23.04	0.88	2
	106	23.22	0.48	2
	107	23.31	0.31	2
	108	23.41	0.41	2
	109	23.69	0.92	2
	110	23.88	0.58	2
	111	24.03	0.46	2
	112	24.22	0.67	2
	113	24.42	0.85	2
	114	25.14	1.16	2
	115	25.27	0.36	2
	116	25.34	0.27	2
	117	25.43	0.35	2
	118	25.56	0.46	2
	119	25.67	0.36	2
	120	25.77	0.42	2
	121	25.86	0.49	2
	122	25.98	0.46	2
	123	26.11	0.44	2
	124	26.32	0.87	2
	125	27.02	1.12	2
	126	27.42	0.46	2

