File:              	C:\Qtrac\Data\Daniel M Sørensen\MScan multicentre study\Data from centres\Edmonton\MSCC00128B.QZD
Name:              	CA.EDM.NC.1.1
Protocol:          	MSCAN-R2
Date:              	28/1/20
Start time:        	14:12:51
Age:               	43
Sex:               	M
Temperature:       	34.6
S/R sites:         	Ulnar Wr-ADM
NC/disease:        	NC
Operator:          	KJ
Comments:
M-SCAN DATA (7.3-1.8m)
Scanpts: 44, 47, 586, 593
Stim. (mA)     	Amp. (mV)
MS.1           	24.5           	9.68
MS.2           	24.5           	9.674
MS.3           	24.5           	9.652
MS.4           	24.5           	9.642
MS.5           	24.5           	9.63
MS.6           	24.5           	9.602
MS.7           	24.5           	9.634
MS.8           	24.5           	9.62
MS.9           	24.5           	9.634
MS.10          	24.5           	9.642
MS.11          	24.5           	9.644
MS.12          	24.5           	9.618
MS.13          	24.5           	9.624
MS.14          	24.5           	9.628
MS.15          	24.5           	9.602
MS.16          	24.5           	9.599
MS.17          	24.5           	9.616
MS.18          	24.5           	9.648
MS.19          	24.5           	9.602
MS.20          	24.5           	9.608
MS.21          	24.5           	9.599
MS.22          	24.5           	9.587
MS.23          	24.5           	9.585
MS.24          	24.352         	9.614
MS.25          	24.305         	9.618
MS.26          	24.255         	9.597
MS.27          	24.207         	9.61
MS.28          	24.16          	9.599
MS.29          	24.11          	9.618
MS.30          	24.062         	9.614
MS.31          	24.015         	9.61
MS.32          	23.967         	9.595
MS.33          	23.92          	9.636
MS.34          	23.87          	9.604
MS.35          	23.823         	9.61
MS.36          	23.775         	9.583
MS.37          	23.727         	9.587
MS.38          	23.68          	9.624
MS.39          	23.632         	9.656
MS.40          	23.587         	9.646
MS.41          	23.54          	9.632
MS.42          	23.493         	9.63
MS.43          	23.445         	9.626
MS.44          	23.397         	9.634
MS.45          	23.352         	9.612
MS.46          	23.305         	9.644
MS.47          	23.257         	9.63
MS.48          	23.212         	9.579
MS.49          	23.165         	9.628
MS.50          	23.12          	9.648
MS.51          	23.073         	9.636
MS.52          	23.028         	9.664
MS.53          	22.98          	9.64
MS.54          	22.935         	9.622
MS.55          	22.89          	9.616
MS.56          	22.842         	9.682
MS.57          	22.797         	9.666
MS.58          	22.752         	9.67
MS.59          	22.707         	9.618
MS.60          	22.663         	9.642
MS.61          	22.618         	9.616
MS.62          	22.57          	9.644
MS.63          	22.525         	9.626
MS.64          	22.48          	9.646
MS.65          	22.435         	9.658
MS.66          	22.39          	9.593
MS.67          	22.347         	9.656
MS.68          	22.302         	9.563
MS.69          	22.257         	9.662
MS.70          	22.212         	9.66
MS.71          	22.167         	9.583
MS.72          	22.125         	9.575
MS.73          	22.08          	9.575
MS.74          	22.035         	9.606
MS.75          	21.993         	9.7
MS.76          	21.948         	9.604
MS.77          	21.905         	9.531
MS.78          	21.86          	9.561
MS.79          	21.817         	9.638
MS.80          	21.772         	9.634
MS.81          	21.73          	9.612
MS.82          	21.685         	9.656
MS.83          	21.642         	9.684
MS.84          	21.6           	9.658
MS.85          	21.557         	9.543
MS.86          	21.512         	9.612
MS.87          	21.47          	9.583
MS.88          	21.427         	9.606
MS.89          	21.385         	9.614
MS.90          	21.342         	9.604
MS.91          	21.3           	9.581
MS.92          	21.257         	9.581
MS.93          	21.215         	9.575
MS.94          	21.172         	9.628
MS.95          	21.13          	9.535
MS.96          	21.087         	9.577
MS.97          	21.045         	9.511
MS.98          	21.002         	9.519
MS.99          	20.96          	9.523
MS.100         	20.92          	9.632
MS.101         	20.877         	9.539
MS.102         	20.835         	9.561
MS.103         	20.795         	9.557
MS.104         	20.752         	9.543
MS.105         	20.71          	9.523
MS.106         	20.67          	9.454
MS.107         	20.627         	9.527
MS.108         	20.587         	9.531
MS.109         	20.545         	9.442
MS.110         	20.505         	9.525
MS.111         	20.465         	9.458
MS.112         	20.422         	9.467
MS.113         	20.382         	9.45
MS.114         	20.342         	9.559
MS.115         	20.3           	9.501
MS.116         	20.26          	9.509
MS.117         	20.22          	9.487
MS.118         	20.18          	9.448
MS.119         	20.14          	9.436
MS.120         	20.1           	9.515
MS.121         	20.06          	9.553
MS.122         	20.017         	9.461
MS.123         	19.977         	9.531
MS.124         	19.94          	9.497
MS.125         	19.9           	9.487
MS.126         	19.86          	9.465
MS.127         	19.82          	9.43
MS.128         	19.78          	9.39
MS.129         	19.74          	9.442
MS.130         	19.7           	9.523
MS.131         	19.663         	9.511
MS.132         	19.622         	9.434
MS.133         	19.583         	9.458
MS.134         	19.545         	9.636
MS.135         	19.505         	9.471
MS.136         	19.465         	9.426
MS.137         	19.427         	9.42
MS.138         	19.387         	9.428
MS.139         	19.35          	9.386
MS.140         	19.31          	9.424
MS.141         	19.272         	9.412
MS.142         	19.235         	9.374
MS.143         	19.195         	9.406
MS.144         	19.157         	9.382
MS.145         	19.118         	9.436
MS.146         	19.08          	9.283
MS.147         	19.042         	9.404
MS.148         	19.005         	9.37
MS.149         	18.967         	9.33
MS.150         	18.927         	9.299
MS.151         	18.89          	9.251
MS.152         	18.852         	9.309
MS.153         	18.815         	9.279
MS.154         	18.778         	9.259
MS.155         	18.74          	9.352
MS.156         	18.702         	9.326
MS.157         	18.665         	9.293
MS.158         	18.628         	9.231
MS.159         	18.59          	9.322
MS.160         	18.552         	9.285
MS.161         	18.517         	9.324
MS.162         	18.48          	9.231
MS.163         	18.442         	9.122
MS.164         	18.405         	9.358
MS.165         	18.37          	9.299
MS.166         	18.333         	9.1
MS.167         	18.295         	9.231
MS.168         	18.26          	9.299
MS.169         	18.222         	9.211
MS.170         	18.188         	9.201
MS.171         	18.15          	9.168
MS.172         	18.112         	9.179
MS.173         	18.077         	9.203
MS.174         	18.042         	9.177
MS.175         	18.005         	9.023
MS.176         	17.97          	9.177
MS.177         	17.932         	9.261
MS.178         	17.897         	9.126
MS.179         	17.862         	8.82
MS.180         	17.825         	9.239
MS.181         	17.79          	9.1
MS.182         	17.755         	8.933
MS.183         	17.72          	9.078
MS.184         	17.685         	9.094
MS.185         	17.65          	9.054
MS.186         	17.612         	8.794
MS.187         	17.577         	8.872
MS.188         	17.542         	9.106
MS.189         	17.507         	8.923
MS.190         	17.472         	8.727
MS.191         	17.438         	8.764
MS.192         	17.403         	8.762
MS.193         	17.368         	8.897
MS.194         	17.335         	8.872
MS.195         	17.3           	8.687
MS.196         	17.265         	8.532
MS.197         	17.23          	8.59
MS.198         	17.195         	8.643
MS.199         	17.163         	8.713
MS.200         	17.128         	8.566
MS.201         	17.092         	8.538
MS.202         	17.06          	8.629
MS.203         	17.025         	8.88
MS.204         	16.99          	8.544
MS.205         	16.958         	8.582
MS.206         	16.922         	8.512
MS.207         	16.89          	8.659
MS.208         	16.855         	8.526
MS.209         	16.823         	8.524
MS.210         	16.788         	8.556
MS.211         	16.755         	8.482
MS.212         	16.72          	8.447
MS.213         	16.688         	8.439
MS.214         	16.655         	8.502
MS.215         	16.62          	8.524
MS.216         	16.587         	8.508
MS.217         	16.555         	8.498
MS.218         	16.522         	8.393
MS.219         	16.487         	8.464
MS.220         	16.455         	8.423
MS.221         	16.422         	8.377
MS.222         	16.39          	8.361
MS.223         	16.358         	8.564
MS.224         	16.325         	8.518
MS.225         	16.292         	8.47
MS.226         	16.26          	8.238
MS.227         	16.227         	8.355
MS.228         	16.195         	8.314
MS.229         	16.163         	8.449
MS.230         	16.13          	8.353
MS.231         	16.097         	8.433
MS.232         	16.065         	8.292
MS.233         	16.032         	8.294
MS.234         	16.003         	8.194
MS.235         	15.97          	8.284
MS.236         	15.938         	8.272
MS.237         	15.905         	8.399
MS.238         	15.875         	8.097
MS.239         	15.842         	8.115
MS.240         	15.81          	8.123
MS.241         	15.78          	8.081
MS.242         	15.747         	8.032
MS.243         	15.715         	7.984
MS.244         	15.685         	8.133
MS.245         	15.652         	8.059
MS.246         	15.622         	7.896
MS.247         	15.59          	7.904
MS.248         	15.56          	7.664
MS.249         	15.527         	7.853
MS.250         	15.497         	7.785
MS.251         	15.467         	7.91
MS.252         	15.435         	7.96
MS.253         	15.405         	7.718
MS.254         	15.375         	7.75
MS.255         	15.342         	7.873
MS.256         	15.312         	7.744
MS.257         	15.282         	7.454
MS.258         	15.252         	7.555
MS.259         	15.22          	7.746
MS.260         	15.19          	7.616
MS.261         	15.16          	7.694
MS.262         	15.13          	7.094
MS.263         	15.1           	7.315
MS.264         	15.07          	7.342
MS.265         	15.04          	6.971
MS.266         	15.01          	7.148
MS.267         	14.98          	7.424
MS.268         	14.95          	7.148
MS.269         	14.92          	7.1
MS.270         	14.89          	7.338
MS.271         	14.86          	7.072
MS.272         	14.83          	7.241
MS.273         	14.8           	7.364
MS.274         	14.77          	6.818
MS.275         	14.742         	6.874
MS.276         	14.712         	6.723
MS.277         	14.682         	7.025
MS.278         	14.652         	7.046
MS.279         	14.625         	7.199
MS.280         	14.595         	6.846
MS.281         	14.565         	6.977
MS.282         	14.537         	6.774
MS.283         	14.507         	6.564
MS.284         	14.477         	6.55
MS.285         	14.45          	6.639
MS.286         	14.42          	6.584
MS.287         	14.392         	6.719
MS.288         	14.362         	6.697
MS.289         	14.335         	6.651
MS.290         	14.305         	6.423
MS.291         	14.278         	6.52
MS.292         	14.247         	6.335
MS.293         	14.22          	6.26
MS.294         	14.193         	6.369
MS.295         	14.162         	6.053
MS.296         	14.135         	6.337
MS.297         	14.108         	6.109
MS.298         	14.08          	6.306
MS.299         	14.05          	6.198
MS.300         	14.023         	6.371
MS.301         	13.995         	5.893
MS.302         	13.967         	5.936
MS.303         	13.938         	5.922
MS.304         	13.91          	6.147
MS.305         	13.882         	6.151
MS.306         	13.855         	5.738
MS.307         	13.827         	6.133
MS.308         	13.8           	6.212
MS.309         	13.773         	5.946
MS.310         	13.745         	5.926
MS.311         	13.717         	5.742
MS.312         	13.69          	5.483
MS.313         	13.662         	5.479
MS.314         	13.635         	5.636
MS.315         	13.608         	5.539
MS.316         	13.58          	5.718
MS.317         	13.555         	5.632
MS.318         	13.528         	5.4
MS.319         	13.5           	5.376
MS.320         	13.472         	5.037
MS.321         	13.445         	5.205
MS.322         	13.42          	5.422
MS.323         	13.392         	5.235
MS.324         	13.365         	5.148
MS.325         	13.337         	5.178
MS.326         	13.312         	4.957
MS.327         	13.285         	5.126
MS.328         	13.26          	4.896
MS.329         	13.233         	4.663
MS.330         	13.205         	4.794
MS.331         	13.18          	4.844
MS.332         	13.153         	4.56
MS.333         	13.127         	4.371
MS.334         	13.1           	4.306
MS.335         	13.075         	4.183
MS.336         	13.047         	4.048
MS.337         	13.023         	4.046
MS.338         	12.997         	4.445
MS.339         	12.97          	4.262
MS.340         	12.945         	4.028
MS.341         	12.917         	4.328
MS.342         	12.892         	3.684
MS.343         	12.867         	3.914
MS.344         	12.842         	3.821
MS.345         	12.815         	3.859
MS.346         	12.79          	3.887
MS.347         	12.765         	3.462
MS.348         	12.74          	3.827
MS.349         	12.712         	3.881
MS.350         	12.688         	3.354
MS.351         	12.662         	3.37
MS.352         	12.637         	3.879
MS.353         	12.613         	3.412
MS.354         	12.587         	3.545
MS.355         	12.562         	3.364
MS.356         	12.537         	3.476
MS.357         	12.512         	3.176
MS.358         	12.488         	3.346
MS.359         	12.462         	3.184
MS.360         	12.438         	3.19
MS.361         	12.412         	3.426
MS.362         	12.387         	3.271
MS.363         	12.363         	3.166
MS.364         	12.337         	3.064
MS.365         	12.312         	2.959
MS.366         	12.287         	2.894
MS.367         	12.265         	2.882
MS.368         	12.24          	3.023
MS.369         	12.215         	3.062
MS.370         	12.19          	2.939
MS.371         	12.167         	2.959
MS.372         	12.142         	2.639
MS.373         	12.117         	2.78
MS.374         	12.092         	2.713
MS.375         	12.07          	2.749
MS.376         	12.045         	2.647
MS.377         	12.02          	2.763
MS.378         	11.997         	2.592
MS.379         	11.972         	2.717
MS.380         	11.95          	2.447
MS.381         	11.925         	2.528
MS.382         	11.903         	2.616
MS.383         	11.877         	2.443
MS.384         	11.855         	2.449
MS.385         	11.83          	2.697
MS.386         	11.807         	2.34
MS.387         	11.782         	2.308
MS.388         	11.76          	2.262
MS.389         	11.735         	2.258
MS.390         	11.712         	2.455
MS.391         	11.69          	2.401
MS.392         	11.665         	2.294
MS.393         	11.642         	2.278
MS.394         	11.62          	2.324
MS.395         	11.595         	2.187
MS.396         	11.572         	2.266
MS.397         	11.55          	2.095
MS.398         	11.528         	2.175
MS.399         	11.502         	2.117
MS.400         	11.48          	2.135
MS.401         	11.457         	2.069
MS.402         	11.435         	2.026
MS.403         	11.412         	1.99
MS.404         	11.39          	1.968
MS.405         	11.367         	2.075
MS.406         	11.345         	2.129
MS.407         	11.32          	1.996
MS.408         	11.297         	2.03
MS.409         	11.275         	1.926
MS.410         	11.252         	1.994
MS.411         	11.23          	1.861
MS.412         	11.207         	1.968
MS.413         	11.185         	1.905
MS.414         	11.162         	1.754
MS.415         	11.142         	1.879
MS.416         	11.12          	1.885
MS.417         	11.097         	1.877
MS.418         	11.075         	1.781
MS.419         	11.052         	1.583
MS.420         	11.03          	1.611
MS.421         	11.007         	1.525
MS.422         	10.988         	1.513
MS.423         	10.965         	1.754
MS.424         	10.943         	1.603
MS.425         	10.92          	1.497
MS.426         	10.9           	1.736
MS.427         	10.877         	1.603
MS.428         	10.855         	1.337
MS.429         	10.835         	1.563
MS.430         	10.812         	1.327
MS.431         	10.79          	1.714
MS.432         	10.77          	1.517
MS.433         	10.747         	1.432
MS.434         	10.725         	1.37
MS.435         	10.705         	1.579
MS.436         	10.682         	1.537
MS.437         	10.662         	1.575
MS.438         	10.64          	1.364
MS.439         	10.62          	1.521
MS.440         	10.597         	1.327
MS.441         	10.577         	1.362
MS.442         	10.555         	1.146
MS.443         	10.535         	1.198
MS.444         	10.512         	1.398
MS.445         	10.492         	1.384
MS.446         	10.472         	1.186
MS.447         	10.45          	1.315
MS.448         	10.43          	1.128
MS.449         	10.41          	1.14
MS.450         	10.387         	1.295
MS.451         	10.367         	1.124
MS.452         	10.347         	0.997
MS.453         	10.325         	1.188
MS.454         	10.305         	0.947
MS.455         	10.285         	1.003
MS.456         	10.265         	1.011
MS.457         	10.245         	1.063
MS.458         	10.222         	0.89
MS.459         	10.202         	0.88
MS.460         	10.182         	0.822
MS.461         	10.162         	0.812
MS.462         	10.142         	0.91
MS.463         	10.122         	0.852
MS.464         	10.102         	0.876
MS.465         	10.08          	0.727
MS.466         	10.06          	0.945
MS.467         	10.04          	0.866
MS.468         	10.02          	0.677
MS.469         	10             	0.904
MS.470         	9.98           	0.816
MS.471         	9.96           	0.763
MS.472         	9.94           	0.745
MS.473         	9.92           	0.777
MS.474         	9.903          	0.683
MS.475         	9.882          	0.709
MS.476         	9.863          	0.741
MS.477         	9.842          	0.777
MS.478         	9.823          	0.687
MS.479         	9.802          	0.659
MS.480         	9.782          	0.693
MS.481         	9.762          	0.844
MS.482         	9.745          	0.653
MS.483         	9.725          	0.624
MS.484         	9.705          	0.749
MS.485         	9.685          	0.516
MS.486         	9.667          	0.592
MS.487         	9.648          	0.463
MS.488         	9.627          	0.669
MS.489         	9.608          	0.673
MS.490         	9.59           	0.514
MS.491         	9.57           	0.594
MS.492         	9.55           	0.53
MS.493         	9.532          	0.612
MS.494         	9.512          	0.542
MS.495         	9.495          	0.59
MS.496         	9.475          	0.506
MS.497         	9.455          	0.491
MS.498         	9.438          	0.367
MS.499         	9.417          	0.429
MS.500         	9.4            	0.389
MS.501         	9.38           	0.282
MS.502         	9.363          	0.431
MS.503         	9.342          	0.449
MS.504         	9.325          	0.256
MS.505         	9.305          	0.367
MS.506         	9.287          	0.254
MS.507         	9.27           	0.387
MS.508         	9.25           	0.395
MS.509         	9.233          	0.294
MS.510         	9.212          	0.352
MS.511         	9.195          	0.207
MS.512         	9.177          	0.089
MS.513         	9.158          	0.228
MS.514         	9.14           	0.145
MS.515         	9.122          	0.169
MS.516         	9.102          	0.262
MS.517         	9.085          	0.089
MS.518         	9.068          	0.167
MS.519         	9.05           	0.232
MS.520         	9.03           	0.216
MS.521         	9.012          	0.352
MS.522         	8.995          	0.342
MS.523         	8.977          	0.167
MS.524         	8.96           	0.091
MS.525         	8.94           	0.266
MS.526         	8.922          	0.308
MS.527         	8.905          	0.163
MS.528         	8.887          	0.103
MS.529         	8.87           	0.207
MS.530         	8.852          	0.129
MS.531         	8.835          	0.155
MS.532         	8.818          	0.131
MS.533         	8.8            	0.131
MS.534         	8.783          	0.079
MS.535         	8.765          	0.107
MS.536         	8.747          	0.101
MS.537         	8.73           	0.087
MS.538         	8.712          	0.101
MS.539         	8.695          	0.113
MS.540         	8.677          	0.115
MS.541         	8.66           	0.087
MS.542         	8.642          	0.107
MS.543         	8.625          	0.121
MS.544         	8.608          	0.159
MS.545         	8.59           	0.111
MS.546         	8.573          	0.101
MS.547         	8.557          	0.109
MS.548         	8.54           	0.089
MS.549         	8.523          	0.103
MS.550         	8.505          	0.087
MS.551         	8.488          	0.111
MS.552         	8.47           	0.101
MS.553         	8.455          	0.097
MS.554         	8.438          	0.099
MS.555         	8.42           	0.089
MS.556         	8.403          	0.014
MS.557         	8.387          	0.107
MS.558         	8.37           	0.018
MS.559         	8.352          	0.016
MS.560         	8.337          	0.008
MS.561         	8.32           	0.091
MS.562         	8.302          	0.014
MS.563         	8.287          	0.01
MS.564         	8.27           	0.105
MS.565         	8.255          	0.085
MS.566         	8.238          	0.01
MS.567         	8.22           	0.008
MS.568         	8.205          	0.016
MS.569         	8.188          	0.008
MS.570         	8.172          	0.008
MS.571         	8.155          	0.014
MS.572         	8.14           	0.097
MS.573         	8.122          	0.115
MS.574         	8.108          	0.109
MS.575         	8.09           	0.01
MS.576         	8.075          	0.008
MS.577         	8.057          	0.016
MS.578         	8.042          	0.012
MS.579         	8.025          	0.01
MS.580         	8.01           	0.014
MS.581         	7.995          	0.008
MS.582         	7.977          	0.099
MS.583         	7.962          	0.01
MS.584         	7.945          	0.01
MS.585         	7.93           	0.01
MS.586         	7.915          	0.004
MS.587         	7.898          	0.01
MS.588         	7.882          	0.006
MS.589         	7.867          	0.006
MS.590         	7.85           	0.006
MS.591         	7.835          	0.014
MS.592         	7.82           	0.004
MS.593         	7.805          	0.006
MS.594         	7.787          	0.006
DERIVED EXCITABILITY VARIABLES
Program = QTracP 3/4/2020
Threshold method = 6 (optimised for CAP, using data for present condition only)
SR method = 1 (using actual data values)
6.                 	0.000               	Peak response\(mV)
9.                 	34.6                	Temperature ( C)
17.                	43                  	Age (years)
18.                	1                   	Sex (M=1, F=2)

EXTRA VARIABLES

MScPeak(mV) = 9.6
MScS5(mA) = 9.58
MScS50(mA) = 13.21
MScS95(mA) = 18.12
MScNSteps = 0
MScSteps(%) = 0.0
MScStepMax(%) = 0.0
MScD50 = 64
MScSlope = 4.1
MSFPeakAmp(mV) = 9.62
MSFNUnits = 113
MSFMeanUnitAmp(uV) = 85.2
MSFHuntTime(m) = 2.58
MSFError(%) = 3.44
MSFNLarge = 34.27
MSFMedianAmp(%) = 0.757
MSFMedianAmp(mV) = 0.0729
MSFHalfAmpAmp(%) = 0.917
MSFHalfAmpAmp(mV) = 0.0882
MSFLargestAmp(%) = 3.23
MSFLargestAmp(mV) = 0.31
MSFMeanRS(%) = 2
MSFOpts = 10106121
MScDuration(min) = 5.5
MSFTraces = 550
MSFSizeLimit(uV) = 24.1
MSFLimitType = 1
MSFSmallestAmp(uV) = 25.2

EXTRA WAVEFORMS


!MScan Model
!113
	1	8.33	0.72	2
	2	8.87	0.91	2
	3	9.17	0.65	2
	4	9.18	0.87	2
	5	9.28	0.9	2
	6	9.36	0.81	2
	7	9.41	0.45	2
	8	9.45	0.41	2
	9	9.76	1.21	2
	10	9.9	0.86	2
	11	10.1	0.92	2
	12	10.17	0.55	2
	13	10.2	0.26	2
	14	10.23	0.42	2
	15	10.27	0.42	2
	16	10.3	0.5	2
	17	10.34	0.51	2
	18	10.38	0.71	2
	19	10.49	1.06	2
	20	10.59	1.08	2
	21	10.77	0.96	2
	22	10.91	1.98	2
	23	11	0.97	2
	24	11.05	0.61	2
	25	11.09	0.49	2
	26	11.15	0.84	2
	27	11.3	0.63	2
	28	11.37	0.44	2
	29	11.42	0.52	2
	30	11.49	0.56	2
	31	11.54	0.42	2
	32	11.57	0.3	2
	33	11.66	0.89	2
	34	11.75	0.93	2
	35	11.83	0.82	2
	36	11.88	0.45	2
	37	11.93	0.66	2
	38	11.97	0.49	2
	39	12.01	0.48	2
	40	12.04	0.53	2
	41	12.1	0.69	2
	42	12.15	0.63	2
	43	12.21	0.63	2
	44	12.26	0.9	2
	45	12.3	0.75	2
	46	12.34	0.49	2
	47	12.38	0.52	2
	48	12.43	0.89	2
	49	12.56	1.98	2
	50	12.66	1.83	2
	51	12.75	1.61	2
	52	12.85	1.77	2
	53	12.93	1.47	2
	54	12.98	1.03	2
	55	13.03	1.42	2
	56	13.06	0.67	2
	57	13.08	0.47	2
	58	13.1	0.48	2
	59	13.12	0.44	2
	60	13.14	0.57	2
	61	13.16	0.63	2
	62	13.18	0.63	2
	63	13.21	0.92	2
	64	13.24	0.9	2
	65	13.27	0.72	2
	66	13.29	0.73	2
	67	13.33	0.76	2
	68	13.37	1.1	2
	69	13.41	1.04	2
	70	13.45	0.76	2
	71	13.5	1.06	2
	72	13.55	0.76	2
	73	13.61	1.12	2
	74	13.68	1.46	2
	75	13.76	1.66	2
	76	14	2.62	2
	77	14.07	0.49	2
	78	14.14	0.78	2
	79	14.19	0.74	2
	80	14.24	0.77	2
	81	14.3	0.77	2
	82	14.36	0.87	2
	83	14.41	0.92	2
	84	14.64	2.6	2
	85	14.94	3.23	2
	86	15.07	1.77	2
	87	15.15	0.72	2
	88	15.23	1.38	2
	89	15.31	1.11	2
	90	15.4	0.9	2
	91	15.49	0.92	2
	92	15.58	0.75	2
	93	15.65	0.59	2
	94	15.71	0.38	2
	95	15.76	0.58	2
	96	15.81	0.5	2
	97	15.85	0.43	2
	98	15.89	0.3	2
	99	15.92	0.35	2
	100	16.09	1.19	2
	101	16.47	1.27	2
	102	16.75	0.66	2
	103	17.14	1.36	2
	104	17.33	1.03	2
	105	17.42	0.69	2
	106	17.77	2.39	2
	107	18.22	1.23	2
	108	18.77	0.78	2
	109	19.08	0.65	2
	110	19.31	0.74	2
	111	20.05	0.71	2
	112	21.11	0.8	2
	113	21.46	0.36	2

