File:              	C:\Qtrac\Data\Daniel M Sørensen\MScan multicentre study\Data from centres\Edmonton\MSCC00215C.QZD
Name:              	CA.EDM.NC.2.2
Protocol:          	MSCAN-R2
Date:              	15/2/20
Start time:        	10:11:47
Age:               	56
Sex:               	F
Temperature:       	32.8
S/R sites:         	CP Kn-TA
NC/disease:        	NC
Operator:          	KJ
Comments:
M-SCAN DATA (6.3-2m)
Scanpts: 19, 22, 451, 472
Stim. (mA)     	Amp. (mV)
MS.1           	24             	6.981
MS.2           	24             	7.007
MS.3           	24             	7.08
MS.4           	24             	7.021
MS.5           	24             	7.027
MS.6           	24             	7.011
MS.7           	24             	6.997
MS.8           	24             	7.074
MS.9           	24             	7.009
MS.10          	24             	6.999
MS.11          	24             	6.979
MS.12          	24             	7.082
MS.13          	24             	6.997
MS.14          	24             	7.029
MS.15          	24             	7.015
MS.16          	24             	7.08
MS.17          	24             	7.048
MS.18          	24             	7.096
MS.19          	24             	6.989
MS.20          	24             	7.033
MS.21          	24             	6.987
MS.22          	24             	7.013
MS.23          	23.905         	6.991
MS.24          	23.858         	7.013
MS.25          	23.807         	6.975
MS.26          	23.76          	7.09
MS.27          	23.712         	6.987
MS.28          	23.665         	6.973
MS.29          	23.62          	7.068
MS.30          	23.573         	7.07
MS.31          	23.525         	6.957
MS.32          	23.477         	6.991
MS.33          	23.43          	6.989
MS.34          	23.385         	6.939
MS.35          	23.337         	7.013
MS.36          	23.29          	6.961
MS.37          	23.245         	7.029
MS.38          	23.198         	6.929
MS.39          	23.153         	6.973
MS.40          	23.105         	6.979
MS.41          	23.06          	6.83
MS.42          	23.012         	6.905
MS.43          	22.967         	6.973
MS.44          	22.92          	6.868
MS.45          	22.875         	6.741
MS.46          	22.83          	6.697
MS.47          	22.785         	6.731
MS.48          	22.737         	6.717
MS.49          	22.692         	6.675
MS.50          	22.647         	6.776
MS.51          	22.602         	6.691
MS.52          	22.557         	6.629
MS.53          	22.512         	6.623
MS.54          	22.467         	6.78
MS.55          	22.422         	6.558
MS.56          	22.377         	6.76
MS.57          	22.332         	6.576
MS.58          	22.288         	6.703
MS.59          	22.243         	6.637
MS.60          	22.2           	6.792
MS.61          	22.155         	6.755
MS.62          	22.11          	6.649
MS.63          	22.067         	6.866
MS.64          	22.022         	6.677
MS.65          	21.977         	6.643
MS.66          	21.935         	6.59
MS.67          	21.89          	6.572
MS.68          	21.847         	6.6
MS.69          	21.802         	6.594
MS.70          	21.76          	6.677
MS.71          	21.715         	6.451
MS.72          	21.672         	6.486
MS.73          	21.63          	6.367
MS.74          	21.585         	6.427
MS.75          	21.542         	6.341
MS.76          	21.5           	6.377
MS.77          	21.458         	6.32
MS.78          	21.415         	6.326
MS.79          	21.372         	6.375
MS.80          	21.327         	6.314
MS.81          	21.285         	6.113
MS.82          	21.243         	6.278
MS.83          	21.2           	6.165
MS.84          	21.157         	6.117
MS.85          	21.118         	6.002
MS.86          	21.075         	6.051
MS.87          	21.032         	5.976
MS.88          	20.99          	5.938
MS.89          	20.948         	6.006
MS.90          	20.907         	6.053
MS.91          	20.865         	6.075
MS.92          	20.823         	5.914
MS.93          	20.78          	5.982
MS.94          	20.74          	5.722
MS.95          	20.698         	5.797
MS.96          	20.657         	5.805
MS.97          	20.615         	5.708
MS.98          	20.575         	5.712
MS.99          	20.532         	5.789
MS.100         	20.493         	5.738
MS.101         	20.452         	5.716
MS.102         	20.41          	5.704
MS.103         	20.37          	5.692
MS.104         	20.33          	5.565
MS.105         	20.288         	5.682
MS.106         	20.247         	5.593
MS.107         	20.208         	5.652
MS.108         	20.167         	5.509
MS.109         	20.127         	5.565
MS.110         	20.087         	5.581
MS.111         	20.047         	5.591
MS.112         	20.007         	5.46
MS.113         	19.967         	5.511
MS.114         	19.927         	5.567
MS.115         	19.887         	5.485
MS.116         	19.847         	5.458
MS.117         	19.807         	5.543
MS.118         	19.767         	5.344
MS.119         	19.727         	5.394
MS.120         	19.69          	5.398
MS.121         	19.65          	5.241
MS.122         	19.61          	5.303
MS.123         	19.57          	5.336
MS.124         	19.532         	5.239
MS.125         	19.493         	5.251
MS.126         	19.455         	5.344
MS.127         	19.415         	5.076
MS.128         	19.377         	5.144
MS.129         	19.337         	5.098
MS.130         	19.3           	5.078
MS.131         	19.26          	4.812
MS.132         	19.222         	4.868
MS.133         	19.182         	4.906
MS.134         	19.145         	4.969
MS.135         	19.108         	4.818
MS.136         	19.067         	4.768
MS.137         	19.03          	4.904
MS.138         	18.993         	4.723
MS.139         	18.955         	4.731
MS.140         	18.917         	4.747
MS.141         	18.88          	4.544
MS.142         	18.842         	4.649
MS.143         	18.802         	4.608
MS.144         	18.765         	4.604
MS.145         	18.727         	4.407
MS.146         	18.69          	4.457
MS.147         	18.655         	4.397
MS.148         	18.618         	4.349
MS.149         	18.58          	4.407
MS.150         	18.542         	4.371
MS.151         	18.505         	4.314
MS.152         	18.467         	4.415
MS.153         	18.432         	4.31
MS.154         	18.395         	4.407
MS.155         	18.358         	4.183
MS.156         	18.32          	4.169
MS.157         	18.285         	4.099
MS.158         	18.247         	4.22
MS.159         	18.212         	4.048
MS.160         	18.175         	4.151
MS.161         	18.137         	4.046
MS.162         	18.102         	3.948
MS.163         	18.067         	3.972
MS.164         	18.03          	4.071
MS.165         	17.995         	3.942
MS.166         	17.958         	4.151
MS.167         	17.922         	3.928
MS.168         	17.887         	3.728
MS.169         	17.85          	3.728
MS.170         	17.815         	3.773
MS.171         	17.78          	3.94
MS.172         	17.745         	3.658
MS.173         	17.708         	3.597
MS.174         	17.672         	3.851
MS.175         	17.637         	3.734
MS.176         	17.602         	3.509
MS.177         	17.567         	3.376
MS.178         	17.532         	3.48
MS.179         	17.497         	3.398
MS.180         	17.462         	3.209
MS.181         	17.427         	3.323
MS.182         	17.392         	3.217
MS.183         	17.358         	3.257
MS.184         	17.323         	3.055
MS.185         	17.288         	3.205
MS.186         	17.255         	3.031
MS.187         	17.22          	2.85
MS.188         	17.185         	2.993
MS.189         	17.15          	2.914
MS.190         	17.118         	2.806
MS.191         	17.083         	2.824
MS.192         	17.047         	2.735
MS.193         	17.015         	2.759
MS.194         	16.98          	2.735
MS.195         	16.948         	2.858
MS.196         	16.913         	2.683
MS.197         	16.878         	2.691
MS.198         	16.845         	2.649
MS.199         	16.812         	2.542
MS.200         	16.778         	2.566
MS.201         	16.745         	2.435
MS.202         	16.71          	2.518
MS.203         	16.677         	2.459
MS.204         	16.645         	2.53
MS.205         	16.61          	2.342
MS.206         	16.577         	2.336
MS.207         	16.545         	2.469
MS.208         	16.512         	2.423
MS.209         	16.477         	2.365
MS.210         	16.445         	2.435
MS.211         	16.413         	2.306
MS.212         	16.38          	2.21
MS.213         	16.347         	2.107
MS.214         	16.315         	2.171
MS.215         	16.282         	2.093
MS.216         	16.25          	2.28
MS.217         	16.217         	2.203
MS.218         	16.185         	1.994
MS.219         	16.153         	2.038
MS.220         	16.12          	1.982
MS.221         	16.087         	1.952
MS.222         	16.055         	1.94
MS.223         	16.022         	2.091
MS.224         	15.992         	1.944
MS.225         	15.96          	1.992
MS.226         	15.927         	1.893
MS.227         	15.895         	1.789
MS.228         	15.865         	1.905
MS.229         	15.832         	1.843
MS.230         	15.8           	1.7
MS.231         	15.77          	1.706
MS.232         	15.737         	1.76
MS.233         	15.705         	1.662
MS.234         	15.675         	1.503
MS.235         	15.642         	1.543
MS.236         	15.612         	1.555
MS.237         	15.58          	1.563
MS.238         	15.55          	1.47
MS.239         	15.52          	1.515
MS.240         	15.487         	1.4
MS.241         	15.457         	1.358
MS.242         	15.425         	1.438
MS.243         	15.395         	1.39
MS.244         	15.365         	1.474
MS.245         	15.332         	1.331
MS.246         	15.302         	1.347
MS.247         	15.273         	1.194
MS.248         	15.242         	1.307
MS.249         	15.212         	1.301
MS.250         	15.18          	1.148
MS.251         	15.15          	1.122
MS.252         	15.12          	1.259
MS.253         	15.09          	1.2
MS.254         	15.06          	1.096
MS.255         	15.03          	1.186
MS.256         	15             	1.098
MS.257         	14.97          	1.096
MS.258         	14.94          	1.078
MS.259         	14.91          	1.074
MS.260         	14.88          	1.106
MS.261         	14.85          	0.953
MS.262         	14.82          	0.977
MS.263         	14.792         	0.931
MS.264         	14.762         	0.959
MS.265         	14.733         	0.981
MS.266         	14.702         	0.975
MS.267         	14.672         	0.957
MS.268         	14.645         	0.977
MS.269         	14.615         	1.005
MS.270         	14.585         	0.953
MS.271         	14.557         	0.878
MS.272         	14.527         	0.844
MS.273         	14.497         	0.88
MS.274         	14.47          	0.85
MS.275         	14.44          	0.858
MS.276         	14.412         	0.82
MS.277         	14.382         	0.826
MS.278         	14.355         	0.741
MS.279         	14.325         	0.767
MS.280         	14.297         	0.699
MS.281         	14.267         	0.695
MS.282         	14.24          	0.713
MS.283         	14.212         	0.723
MS.284         	14.182         	0.717
MS.285         	14.155         	0.632
MS.286         	14.127         	0.677
MS.287         	14.097         	0.729
MS.288         	14.07          	0.582
MS.289         	14.042         	0.582
MS.290         	14.015         	0.522
MS.291         	13.985         	0.53
MS.292         	13.957         	0.586
MS.293         	13.93          	0.566
MS.294         	13.903         	0.52
MS.295         	13.875         	0.491
MS.296         	13.847         	0.534
MS.297         	13.82          	0.435
MS.298         	13.792         	0.55
MS.299         	13.765         	0.344
MS.300         	13.737         	0.538
MS.301         	13.71          	0.433
MS.302         	13.682         	0.461
MS.303         	13.655         	0.383
MS.304         	13.627         	0.381
MS.305         	13.6           	0.429
MS.306         	13.572         	0.328
MS.307         	13.545         	0.495
MS.308         	13.517         	0.264
MS.309         	13.492         	0.449
MS.310         	13.465         	0.334
MS.311         	13.438         	0.338
MS.312         	13.41          	0.363
MS.313         	13.385         	0.395
MS.314         	13.358         	0.328
MS.315         	13.33          	0.377
MS.316         	13.305         	0.338
MS.317         	13.278         	0.375
MS.318         	13.25          	0.24
MS.319         	13.225         	0.228
MS.320         	13.197         	0.264
MS.321         	13.172         	0.236
MS.322         	13.145         	0.242
MS.323         	13.12          	0.272
MS.324         	13.092         	0.222
MS.325         	13.068         	0.23
MS.326         	13.04          	0.232
MS.327         	13.015         	0.165
MS.328         	12.987         	0.157
MS.329         	12.962         	0.209
MS.330         	12.938         	0.159
MS.331         	12.91          	0.193
MS.332         	12.885         	0.129
MS.333         	12.86          	0.137
MS.334         	12.832         	0.143
MS.335         	12.807         	0.109
MS.336         	12.782         	0.105
MS.337         	12.757         	0.101
MS.338         	12.73          	0.099
MS.339         	12.705         	0.097
MS.340         	12.68          	0.117
MS.341         	12.655         	0.091
MS.342         	12.63          	0.087
MS.343         	12.605         	0.083
MS.344         	12.58          	0.115
MS.345         	12.555         	0.093
MS.346         	12.53          	0.087
MS.347         	12.505         	0.081
MS.348         	12.48          	0.103
MS.349         	12.455         	0.081
MS.350         	12.43          	0.081
MS.351         	12.405         	0.103
MS.352         	12.38          	0.073
MS.353         	12.355         	0.079
MS.354         	12.33          	0.077
MS.355         	12.305         	0.064
MS.356         	12.28          	0.058
MS.357         	12.257         	0.064
MS.358         	12.233         	0.07
MS.359         	12.207         	0.073
MS.360         	12.182         	0.075
MS.361         	12.16          	0.066
MS.362         	12.135         	0.066
MS.363         	12.11          	0.079
MS.364         	12.085         	0.066
MS.365         	12.062         	0.05
MS.366         	12.037         	0.052
MS.367         	12.012         	0.073
MS.368         	11.99          	0.064
MS.369         	11.965         	0.062
MS.370         	11.943         	0.054
MS.371         	11.917         	0.066
MS.372         	11.895         	0.07
MS.373         	11.87          	0.068
MS.374         	11.847         	0.062
MS.375         	11.822         	0.054
MS.376         	11.8           	0.052
MS.377         	11.775         	0.06
MS.378         	11.752         	0.058
MS.379         	11.73          	0.054
MS.380         	11.705         	0.058
MS.381         	11.682         	0.044
MS.382         	11.657         	0.052
MS.383         	11.635         	0.054
MS.384         	11.613         	0.06
MS.385         	11.59          	0.056
MS.386         	11.565         	0.052
MS.387         	11.542         	0.048
MS.388         	11.52          	0.052
MS.389         	11.497         	0.05
MS.390         	11.472         	0.05
MS.391         	11.45          	0.052
MS.392         	11.427         	0.052
MS.393         	11.405         	0.038
MS.394         	11.382         	0.054
MS.395         	11.36          	0.044
MS.396         	11.337         	0.046
MS.397         	11.315         	0.044
MS.398         	11.292         	0.046
MS.399         	11.27          	0.052
MS.400         	11.247         	0.046
MS.401         	11.225         	0.048
MS.402         	11.202         	0.044
MS.403         	11.18          	0.038
MS.404         	11.157         	0.046
MS.405         	11.135         	0.034
MS.406         	11.113         	0.048
MS.407         	11.09          	0.04
MS.408         	11.068         	0.042
MS.409         	11.045         	0.04
MS.410         	11.023         	0.038
MS.411         	11.002         	0.04
MS.412         	10.98          	0.032
MS.413         	10.957         	0.038
MS.414         	10.935         	0.046
MS.415         	10.915         	0.038
MS.416         	10.892         	0.04
MS.417         	10.87          	0.04
MS.418         	10.85          	0.044
MS.419         	10.827         	0.032
MS.420         	10.805         	0.028
MS.421         	10.785         	0.03
MS.422         	10.762         	0.036
MS.423         	10.74          	0.036
MS.424         	10.72          	0.038
MS.425         	10.698         	0.042
MS.426         	10.677         	0.036
MS.427         	10.655         	0.036
MS.428         	10.635         	0.044
MS.429         	10.613         	0.034
MS.430         	10.592         	0.03
MS.431         	10.57          	0.028
MS.432         	10.55          	0.032
MS.433         	10.528         	0.038
MS.434         	10.507         	0.018
MS.435         	10.485         	0.034
MS.436         	10.465         	0.028
MS.437         	10.445         	0.032
MS.438         	10.422         	0.03
MS.439         	10.403         	0.03
MS.440         	10.382         	0.036
MS.441         	10.36          	0.018
MS.442         	10.34          	0.018
MS.443         	10.32          	0.032
MS.444         	10.3           	0.02
MS.445         	10.278         	0.018
MS.446         	10.257         	0.016
MS.447         	10.238         	0.018
MS.448         	10.217         	0.018
MS.449         	10.198         	0.02
MS.450         	10.175         	0.018
MS.451         	10.155         	0.034
MS.452         	10.135         	0.02
MS.453         	10.115         	0.018
MS.454         	10.095         	0.018
MS.455         	10.075         	0.02
MS.456         	10.055         	0.02
MS.457         	10.035         	0.02
MS.458         	10.015         	0.016
MS.459         	9.995          	0.018
MS.460         	9.975          	0.018
MS.461         	9.955          	0.032
MS.462         	9.935          	0.032
MS.463         	9.915          	0.018
MS.464         	9.895          	0.018
MS.465         	9.875          	0.02
MS.466         	9.855          	0.016
MS.467         	9.835          	0.018
MS.468         	9.818          	0.018
MS.469         	9.797          	0.034
MS.470         	9.778          	0.016
MS.471         	9.757          	0.018
MS.472         	9.738          	0.018
DERIVED EXCITABILITY VARIABLES
Program = QTracP 3/4/2020
Threshold method = 6 (optimised for CAP, using data for present condition only)
SR method = 1 (using actual data values)
6.                 	0.000               	Peak response\(mV)
9.                 	32.8                	Temperature ( C)
17.                	56                  	Age (years)
18.                	2                   	Sex (M=1, F=2)

EXTRA VARIABLES

MScPeak(mV) = 7
MScS5(mA) = 13.48
MScS50(mA) = 17.6
MScS95(mA) = 22.22
MScNSteps = 1
MScSteps(%) = 2.1
MScStepMax(%) = 2.1
MScD50 = 54
MScSlope = 4.64
MSFPeakAmp(mV) = 6.98
MSFNUnits = 169
MSFMeanUnitAmp(uV) = 41.3
MSFHuntTime(m) = 3.26
MSFError(%) = 2.22
MSFNLarge = 58.22
MSFMedianAmp(%) = 0.535
MSFMedianAmp(mV) = 0.0374
MSFHalfAmpAmp(%) = 0.617
MSFHalfAmpAmp(mV) = 0.0431
MSFLargestAmp(%) = 2.34
MSFLargestAmp(mV) = 0.164
MSFMeanRS(%) = 2
MSFOpts = 10106121
MScDuration(min) = 4.3
MSFTraces = 454
MSFSizeLimit(uV) = 17.5
MSFLimitType = 1
MSFSmallestAmp(uV) = 17.9

EXTRA WAVEFORMS


!MScan Model
!169
	1	11.06	0.72	2
	2	12.57	0.34	2
	3	12.72	0.27	2
	4	12.83	0.33	2
	5	12.89	0.41	2
	6	13.02	0.53	2
	7	13.08	0.38	2
	8	13.14	0.39	2
	9	13.22	0.43	2
	10	13.38	0.8	2
	11	13.66	1.26	2
	12	13.79	0.64	2
	13	13.88	0.74	2
	14	13.95	0.5	2
	15	14	0.36	2
	16	14.05	0.37	2
	17	14.12	0.55	2
	18	14.18	0.48	2
	19	14.23	0.46	2
	20	14.27	0.36	2
	21	14.31	0.34	2
	22	14.35	0.34	2
	23	14.4	0.36	2
	24	14.46	0.48	2
	25	14.52	0.55	2
	26	14.62	0.7	2
	27	14.7	0.46	2
	28	14.78	0.73	2
	29	14.85	0.47	2
	30	14.92	0.33	2
	31	14.98	0.47	2
	32	15.04	0.67	2
	33	15.1	0.5	2
	34	15.16	0.55	2
	35	15.22	0.62	2
	36	15.26	0.45	2
	37	15.3	0.4	2
	38	15.34	0.26	2
	39	15.38	0.45	2
	40	15.41	0.42	2
	41	15.45	0.38	2
	42	15.49	0.64	2
	43	15.52	0.37	2
	44	15.55	0.36	2
	45	15.59	0.53	2
	46	15.65	0.52	2
	47	15.66	0.3	2
	48	15.68	0.3	2
	49	15.7	0.3	2
	50	15.73	0.45	2
	51	15.76	0.51	2
	52	15.82	0.62	2
	53	15.85	0.45	2
	54	15.88	0.55	2
	55	15.94	0.75	2
	56	15.99	0.73	2
	57	16.11	0.86	2
	58	16.18	0.77	2
	59	16.21	0.7	2
	60	16.24	0.64	2
	61	16.29	0.36	2
	62	16.34	0.72	2
	63	16.42	0.94	2
	64	16.49	0.92	2
	65	16.56	0.66	2
	66	16.62	1.17	2
	67	16.68	0.6	2
	68	16.72	0.45	2
	69	16.8	0.38	2
	70	16.83	0.54	2
	71	16.87	0.47	2
	72	16.9	0.46	2
	73	16.94	0.52	2
	74	16.97	0.51	2
	75	17.01	0.52	2
	76	17.04	0.48	2
	77	17.07	0.46	2
	78	17.11	0.54	2
	79	17.14	0.52	2
	80	17.17	0.51	2
	81	17.2	0.43	2
	82	17.22	0.35	2
	83	17.24	0.37	2
	84	17.26	0.37	2
	85	17.28	0.36	2
	86	17.3	0.43	2
	87	17.33	0.45	2
	88	17.35	0.46	2
	89	17.38	0.58	2
	90	17.41	0.67	2
	91	17.44	0.74	2
	92	17.47	0.77	2
	93	17.51	0.67	2
	94	17.55	0.8	2
	95	17.6	1.21	2
	96	17.65	0.65	2
	97	17.71	1.08	2
	98	17.82	2.08	2
	99	17.94	1.41	2
	100	18.06	1.34	2
	101	18.16	1.16	2
	102	18.25	1.17	2
	103	18.31	0.71	2
	104	18.38	0.45	2
	105	18.44	0.62	2
	106	18.5	0.44	2
	107	18.55	0.98	2
	108	18.6	0.49	2
	109	18.64	0.37	2
	110	18.66	0.28	2
	111	18.69	0.31	2
	112	18.74	0.38	2
	113	18.76	0.36	2
	114	18.79	0.34	2
	115	18.82	0.47	2
	116	18.87	0.67	2
	117	18.92	0.57	2
	118	18.97	0.62	2
	119	19.02	0.58	2
	120	19.06	0.56	2
	121	19.11	0.74	2
	122	19.16	0.78	2
	123	19.2	0.61	2
	124	19.24	0.58	2
	125	19.28	0.58	2
	126	19.36	0.8	2
	127	19.4	0.57	2
	128	19.45	0.63	2
	129	19.5	0.64	2
	130	19.55	0.83	2
	131	19.6	0.48	2
	132	19.65	0.5	2
	133	19.69	0.62	2
	134	19.79	0.54	2
	135	19.88	0.74	2
	136	20	0.78	2
	137	20.07	0.34	2
	138	20.14	0.57	2
	139	20.21	0.37	2
	140	20.34	0.59	2
	141	20.45	0.57	2
	142	20.52	0.73	2
	143	20.67	0.97	2
	144	20.77	0.45	2
	145	20.86	0.74	2
	146	20.93	0.79	2
	147	21.01	0.8	2
	148	21.06	0.55	2
	149	21.11	0.59	2
	150	21.2	0.57	2
	151	21.24	0.46	2
	152	21.29	0.49	2
	153	21.34	0.49	2
	154	21.38	0.45	2
	155	21.41	0.7	2
	156	21.42	0.34	2
	157	21.43	0.51	2
	158	21.48	0.53	2
	159	21.53	0.54	2
	160	21.59	0.56	2
	161	21.71	0.78	2
	162	21.81	0.59	2
	163	21.87	0.66	2
	164	22.56	2.34	2
	165	22.67	0.31	2
	166	22.88	0.39	2.4
	167	22.88	0.32	2.4
	168	22.97	0.4	2
	169	23.13	1.04	2

