File:              	C:\Qtrac\Data\Daniel M Sørensen\MScan multicentre study\Data from centres\Edmonton\Processed data\MSCC01013D.QZD
Name:              	CA.EDM.NC.9.2
Protocol:          	MSCAN-R2
Date:              	13/10/20
Start time:        	10:19:05
Age:               	23
Sex:               	F
Temperature:       	34.5
S/R sites:         	TA
NC/disease:        	NC
Operator:          	KJ
Comments:
M-SCAN DATA (7.6-1.5m)
Scanpts: 60, 67, 507, 507
Stim. (mA)     	Amp. (mV)
MS.1           	25.5           	6.772
MS.2           	25.5           	6.766
MS.3           	25.5           	6.77
MS.4           	25.5           	6.81
MS.5           	25.5           	6.764
MS.6           	25.5           	6.792
MS.7           	25.5           	6.796
MS.8           	25.5           	6.802
MS.9           	25.5           	6.802
MS.10          	25.5           	6.778
MS.11          	25.5           	6.8
MS.12          	25.5           	6.786
MS.13          	25.5           	6.766
MS.14          	25.5           	6.798
MS.15          	25.5           	6.758
MS.16          	25.5           	6.78
MS.17          	25.5           	6.776
MS.18          	25.5           	6.76
MS.19          	25.5           	6.776
MS.20          	25.5           	6.798
MS.21          	25.5           	6.822
MS.22          	25.5           	6.816
MS.23          	25.5           	6.802
MS.24          	25.397         	6.852
MS.25          	25.347         	6.836
MS.26          	25.297         	6.814
MS.27          	25.245         	6.812
MS.28          	25.195         	6.818
MS.29          	25.145         	6.832
MS.30          	25.095         	6.79
MS.31          	25.045         	6.794
MS.32          	24.995         	6.798
MS.33          	24.945         	6.798
MS.34          	24.895         	6.84
MS.35          	24.845         	6.814
MS.36          	24.795         	6.8
MS.37          	24.747         	6.816
MS.38          	24.698         	6.82
MS.39          	24.647         	6.842
MS.40          	24.597         	6.834
MS.41          	24.55          	6.83
MS.42          	24.5           	6.844
MS.43          	24.45          	6.818
MS.44          	24.403         	6.826
MS.45          	24.352         	6.814
MS.46          	24.305         	6.842
MS.47          	24.257         	6.838
MS.48          	24.207         	6.826
MS.49          	24.16          	6.844
MS.50          	24.11          	6.854
MS.51          	24.062         	6.848
MS.52          	24.015         	6.85
MS.53          	23.967         	6.848
MS.54          	23.92          	6.852
MS.55          	23.87          	6.846
MS.56          	23.823         	6.84
MS.57          	23.775         	6.858
MS.58          	23.727         	6.86
MS.59          	23.68          	6.858
MS.60          	23.632         	6.862
MS.61          	23.587         	6.868
MS.62          	23.54          	6.868
MS.63          	23.493         	6.874
MS.64          	23.445         	6.86
MS.65          	23.397         	6.866
MS.66          	23.352         	6.848
MS.67          	23.305         	6.884
MS.68          	23.257         	6.868
MS.69          	23.212         	6.884
MS.70          	23.165         	6.872
MS.71          	23.12          	6.834
MS.72          	23.073         	6.876
MS.73          	23.028         	6.884
MS.74          	22.98          	6.872
MS.75          	22.935         	6.866
MS.76          	22.89          	6.866
MS.77          	22.842         	6.876
MS.78          	22.797         	6.808
MS.79          	22.752         	6.852
MS.80          	22.707         	6.755
MS.81          	22.663         	6.854
MS.82          	22.618         	6.89
MS.83          	22.57          	6.844
MS.84          	22.525         	6.836
MS.85          	22.48          	6.868
MS.86          	22.435         	6.852
MS.87          	22.392         	6.872
MS.88          	22.347         	6.776
MS.89          	22.302         	6.844
MS.90          	22.257         	6.798
MS.91          	22.212         	6.824
MS.92          	22.167         	6.693
MS.93          	22.125         	6.796
MS.94          	22.08          	6.79
MS.95          	22.035         	6.79
MS.96          	21.993         	6.83
MS.97          	21.948         	6.84
MS.98          	21.905         	6.804
MS.99          	21.86          	6.808
MS.100         	21.817         	6.737
MS.101         	21.772         	6.598
MS.102         	21.73          	6.826
MS.103         	21.685         	6.824
MS.104         	21.642         	6.818
MS.105         	21.6           	6.608
MS.106         	21.557         	6.612
MS.107         	21.512         	6.639
MS.108         	21.47          	6.782
MS.109         	21.427         	6.608
MS.110         	21.385         	6.711
MS.111         	21.342         	6.745
MS.112         	21.3           	6.727
MS.113         	21.257         	6.586
MS.114         	21.215         	6.631
MS.115         	21.172         	6.659
MS.116         	21.13          	6.623
MS.117         	21.087         	6.592
MS.118         	21.045         	6.604
MS.119         	21.002         	6.554
MS.120         	20.96          	6.568
MS.121         	20.92          	6.608
MS.122         	20.877         	6.546
MS.123         	20.835         	6.53
MS.124         	20.795         	6.588
MS.125         	20.752         	6.484
MS.126         	20.71          	6.484
MS.127         	20.67          	6.54
MS.128         	20.627         	6.429
MS.129         	20.587         	6.425
MS.130         	20.545         	6.441
MS.131         	20.505         	6.421
MS.132         	20.465         	6.457
MS.133         	20.422         	6.51
MS.134         	20.382         	6.264
MS.135         	20.342         	6.427
MS.136         	20.3           	6.562
MS.137         	20.26          	6.387
MS.138         	20.22          	6.465
MS.139         	20.18          	6.486
MS.140         	20.14          	6.349
MS.141         	20.1           	6.31
MS.142         	20.06          	6.32
MS.143         	20.02          	6.151
MS.144         	19.98          	6.228
MS.145         	19.94          	6.222
MS.146         	19.9           	6.181
MS.147         	19.86          	6.151
MS.148         	19.82          	6.188
MS.149         	19.78          	6.226
MS.150         	19.74          	6.127
MS.151         	19.7           	6.137
MS.152         	19.663         	6.206
MS.153         	19.622         	6.097
MS.154         	19.583         	6.097
MS.155         	19.545         	6.161
MS.156         	19.505         	6.089
MS.157         	19.465         	6.121
MS.158         	19.427         	6.121
MS.159         	19.387         	6.065
MS.160         	19.35          	6.085
MS.161         	19.31          	5.869
MS.162         	19.272         	6.081
MS.163         	19.235         	5.93
MS.164         	19.195         	5.964
MS.165         	19.157         	5.835
MS.166         	19.12          	5.918
MS.167         	19.08          	5.775
MS.168         	19.042         	5.98
MS.169         	19.005         	5.897
MS.170         	18.967         	5.829
MS.171         	18.927         	5.72
MS.172         	18.89          	5.904
MS.173         	18.852         	5.95
MS.174         	18.815         	5.825
MS.175         	18.778         	5.885
MS.176         	18.74          	5.887
MS.177         	18.702         	5.593
MS.178         	18.665         	5.781
MS.179         	18.628         	5.686
MS.180         	18.59          	5.75
MS.181         	18.555         	5.662
MS.182         	18.517         	5.714
MS.183         	18.48          	5.863
MS.184         	18.442         	5.686
MS.185         	18.405         	5.646
MS.186         	18.37          	5.67
MS.187         	18.333         	5.537
MS.188         	18.295         	5.549
MS.189         	18.26          	5.579
MS.190         	18.222         	5.668
MS.191         	18.188         	5.523
MS.192         	18.15          	5.551
MS.193         	18.115         	5.386
MS.194         	18.077         	5.428
MS.195         	18.042         	5.46
MS.196         	18.005         	5.424
MS.197         	17.97          	5.45
MS.198         	17.932         	5.374
MS.199         	17.897         	5.454
MS.200         	17.862         	5.213
MS.201         	17.827         	5.41
MS.202         	17.79          	5.36
MS.203         	17.755         	5.158
MS.204         	17.72          	5.074
MS.205         	17.685         	5.211
MS.206         	17.65          	5.17
MS.207         	17.612         	4.868
MS.208         	17.577         	4.834
MS.209         	17.542         	4.902
MS.210         	17.507         	4.892
MS.211         	17.472         	5.029
MS.212         	17.438         	4.878
MS.213         	17.403         	4.737
MS.214         	17.37          	4.902
MS.215         	17.335         	4.695
MS.216         	17.3           	4.618
MS.217         	17.265         	4.502
MS.218         	17.23          	4.457
MS.219         	17.195         	4.53
MS.220         	17.163         	4.56
MS.221         	17.128         	4.314
MS.222         	17.092         	4.33
MS.223         	17.06          	4.089
MS.224         	17.025         	4.23
MS.225         	16.99          	4.103
MS.226         	16.958         	4.123
MS.227         	16.922         	3.97
MS.228         	16.89          	3.978
MS.229         	16.855         	4.125
MS.230         	16.823         	4.014
MS.231         	16.788         	3.918
MS.232         	16.755         	3.815
MS.233         	16.72          	3.722
MS.234         	16.688         	3.893
MS.235         	16.655         	3.591
MS.236         	16.62          	3.545
MS.237         	16.587         	3.918
MS.238         	16.555         	3.694
MS.239         	16.522         	3.684
MS.240         	16.487         	3.527
MS.241         	16.455         	3.585
MS.242         	16.422         	3.321
MS.243         	16.39          	3.448
MS.244         	16.358         	3.368
MS.245         	16.325         	3.458
MS.246         	16.292         	3.227
MS.247         	16.26          	3.301
MS.248         	16.227         	3.321
MS.249         	16.195         	3.209
MS.250         	16.163         	3.211
MS.251         	16.13          	3.219
MS.252         	16.097         	3.078
MS.253         	16.065         	3.082
MS.254         	16.032         	3.047
MS.255         	16.003         	3.072
MS.256         	15.97          	2.917
MS.257         	15.938         	2.79
MS.258         	15.905         	3.013
MS.259         	15.875         	2.943
MS.260         	15.842         	2.864
MS.261         	15.81          	2.866
MS.262         	15.78          	2.886
MS.263         	15.747         	2.828
MS.264         	15.715         	2.975
MS.265         	15.685         	2.796
MS.266         	15.652         	2.78
MS.267         	15.622         	2.842
MS.268         	15.59          	2.739
MS.269         	15.56          	2.661
MS.270         	15.527         	2.699
MS.271         	15.497         	2.699
MS.272         	15.467         	2.582
MS.273         	15.435         	2.578
MS.274         	15.405         	2.415
MS.275         	15.375         	2.383
MS.276         	15.342         	2.437
MS.277         	15.312         	2.425
MS.278         	15.282         	2.433
MS.279         	15.252         	2.282
MS.280         	15.22          	2.248
MS.281         	15.19          	2.286
MS.282         	15.16          	2.197
MS.283         	15.13          	2.155
MS.284         	15.1           	2.071
MS.285         	15.07          	1.583
MS.286         	15.04          	2.042
MS.287         	15.01          	1.996
MS.288         	14.98          	1.897
MS.289         	14.95          	1.807
MS.290         	14.92          	1.841
MS.291         	14.89          	1.787
MS.292         	14.86          	1.847
MS.293         	14.83          	1.857
MS.294         	14.8           	1.913
MS.295         	14.77          	1.746
MS.296         	14.742         	1.799
MS.297         	14.712         	1.74
MS.298         	14.682         	1.672
MS.299         	14.652         	1.68
MS.300         	14.625         	1.722
MS.301         	14.595         	1.505
MS.302         	14.565         	1.593
MS.303         	14.537         	1.527
MS.304         	14.507         	1.484
MS.305         	14.477         	1.416
MS.306         	14.45          	1.454
MS.307         	14.42          	1.406
MS.308         	14.392         	1.394
MS.309         	14.362         	1.341
MS.310         	14.335         	1.247
MS.311         	14.305         	1.241
MS.312         	14.278         	1.265
MS.313         	14.25          	1.124
MS.314         	14.22          	1.194
MS.315         	14.193         	1.106
MS.316         	14.162         	1.221
MS.317         	14.135         	1.194
MS.318         	14.108         	1.082
MS.319         	14.08          	1.076
MS.320         	14.05          	1.053
MS.321         	14.023         	1.041
MS.322         	13.995         	1.011
MS.323         	13.967         	1.009
MS.324         	13.94          	1.029
MS.325         	13.91          	0.965
MS.326         	13.882         	0.904
MS.327         	13.855         	0.872
MS.328         	13.827         	0.765
MS.329         	13.8           	0.927
MS.330         	13.773         	0.737
MS.331         	13.745         	0.812
MS.332         	13.717         	0.761
MS.333         	13.69          	0.757
MS.334         	13.662         	0.761
MS.335         	13.635         	0.751
MS.336         	13.608         	0.761
MS.337         	13.58          	0.683
MS.338         	13.555         	0.671
MS.339         	13.528         	0.616
MS.340         	13.5           	0.548
MS.341         	13.472         	0.626
MS.342         	13.445         	0.641
MS.343         	13.42          	0.616
MS.344         	13.392         	0.586
MS.345         	13.365         	0.54
MS.346         	13.34          	0.5
MS.347         	13.312         	0.504
MS.348         	13.285         	0.5
MS.349         	13.26          	0.495
MS.350         	13.233         	0.522
MS.351         	13.205         	0.465
MS.352         	13.18          	0.451
MS.353         	13.153         	0.421
MS.354         	13.127         	0.425
MS.355         	13.1           	0.419
MS.356         	13.075         	0.421
MS.357         	13.047         	0.489
MS.358         	13.023         	0.393
MS.359         	12.997         	0.377
MS.360         	12.97          	0.391
MS.361         	12.945         	0.322
MS.362         	12.917         	0.409
MS.363         	12.892         	0.34
MS.364         	12.867         	0.324
MS.365         	12.842         	0.354
MS.366         	12.815         	0.334
MS.367         	12.79          	0.284
MS.368         	12.765         	0.262
MS.369         	12.74          	0.26
MS.370         	12.712         	0.236
MS.371         	12.688         	0.236
MS.372         	12.662         	0.252
MS.373         	12.637         	0.232
MS.374         	12.613         	0.234
MS.375         	12.587         	0.189
MS.376         	12.562         	0.179
MS.377         	12.537         	0.201
MS.378         	12.512         	0.203
MS.379         	12.488         	0.161
MS.380         	12.462         	0.181
MS.381         	12.438         	0.183
MS.382         	12.412         	0.163
MS.383         	12.387         	0.155
MS.384         	12.363         	0.171
MS.385         	12.337         	0.149
MS.386         	12.312         	0.163
MS.387         	12.287         	0.135
MS.388         	12.265         	0.141
MS.389         	12.24          	0.141
MS.390         	12.215         	0.137
MS.391         	12.19          	0.111
MS.392         	12.167         	0.167
MS.393         	12.142         	0.109
MS.394         	12.117         	0.105
MS.395         	12.092         	0.111
MS.396         	12.07          	0.113
MS.397         	12.045         	0.066
MS.398         	12.02          	0.095
MS.399         	11.997         	0.07
MS.400         	11.972         	0.075
MS.401         	11.95          	0.117
MS.402         	11.925         	0.081
MS.403         	11.903         	0.093
MS.404         	11.877         	0.083
MS.405         	11.855         	0.066
MS.406         	11.83          	0.089
MS.407         	11.807         	0.075
MS.408         	11.782         	0.079
MS.409         	11.76          	0.064
MS.410         	11.735         	0.075
MS.411         	11.712         	0.052
MS.412         	11.69          	0.062
MS.413         	11.665         	0.054
MS.414         	11.642         	0.056
MS.415         	11.62          	0.048
MS.416         	11.595         	0.058
MS.417         	11.572         	0.054
MS.418         	11.55          	0.036
MS.419         	11.528         	0.062
MS.420         	11.505         	0.048
MS.421         	11.48          	0.036
MS.422         	11.457         	0.03
MS.423         	11.435         	0.036
MS.424         	11.412         	0.034
MS.425         	11.39          	0.036
MS.426         	11.367         	0.038
MS.427         	11.345         	0.022
MS.428         	11.32          	0.03
MS.429         	11.297         	0.028
MS.430         	11.275         	0.032
MS.431         	11.252         	0.028
MS.432         	11.23          	0.022
MS.433         	11.207         	0.028
MS.434         	11.185         	0.02
MS.435         	11.165         	0.02
MS.436         	11.142         	0.026
MS.437         	11.12          	0.028
MS.438         	11.097         	0.018
MS.439         	11.075         	0.016
MS.440         	11.052         	0.026
MS.441         	11.03          	0.02
MS.442         	11.007         	0.03
MS.443         	10.988         	0.018
MS.444         	10.965         	0.016
MS.445         	10.943         	0.018
MS.446         	10.92          	0.018
MS.447         	10.9           	0.018
MS.448         	10.877         	0.018
MS.449         	10.855         	0.022
MS.450         	10.835         	0.016
MS.451         	10.812         	0.018
MS.452         	10.79          	0.02
MS.453         	10.77          	0.016
MS.454         	10.747         	0.016
MS.455         	10.725         	0.016
MS.456         	10.705         	0.018
MS.457         	10.682         	0.014
MS.458         	10.662         	0.016
MS.459         	10.64          	0.018
MS.460         	10.62          	0.016
MS.461         	10.597         	0.018
MS.462         	10.577         	0.022
MS.463         	10.555         	0.016
MS.464         	10.535         	0.014
MS.465         	10.512         	0.014
MS.466         	10.492         	0.014
MS.467         	10.472         	0.016
MS.468         	10.45          	0.016
MS.469         	10.43          	0.01
MS.470         	10.41          	0.012
MS.471         	10.387         	0.01
MS.472         	10.367         	0.012
MS.473         	10.347         	0.012
MS.474         	10.325         	0.01
MS.475         	10.305         	0.016
MS.476         	10.285         	0.012
MS.477         	10.265         	0.014
MS.478         	10.245         	0.012
MS.479         	10.222         	0.01
MS.480         	10.202         	0.012
MS.481         	10.182         	0.01
MS.482         	10.162         	0.012
MS.483         	10.142         	0.012
MS.484         	10.122         	0.01
MS.485         	10.102         	0.012
MS.486         	10.08          	0.01
MS.487         	10.06          	0.008
MS.488         	10.04          	0.01
MS.489         	10.02          	0.01
MS.490         	10             	0.012
MS.491         	9.98           	0.01
MS.492         	9.96           	0.008
MS.493         	9.94           	0.01
MS.494         	9.92           	0.01
MS.495         	9.903          	0.012
MS.496         	9.882          	0.01
MS.497         	9.863          	0.008
MS.498         	9.842          	0.012
MS.499         	9.823          	0.008
MS.500         	9.802          	0.008
MS.501         	9.782          	0.012
MS.502         	9.762          	0.01
MS.503         	9.745          	0.008
MS.504         	9.725          	0.01
MS.505         	9.705          	0.008
MS.506         	9.685          	0.008
MS.507         	9.667          	0.012
DERIVED EXCITABILITY VARIABLES
Program = QTracP 3/4/2020
Threshold method = 6 (optimised for CAP, using data for present condition only)
SR method = 1 (using actual data values)
6.                 	0.000               	Peak response\(mV)
9.                 	34.5                	Temperature ( C)
17.                	23                  	Age (years)
18.                	2                   	Sex (M=1, F=2)

EXTRA VARIABLES

MScPeak(mV) = 6.78
MScS5(mA) = 12.89
MScS50(mA) = 16.37
MScS95(mA) = 20.4
MScNSteps = 2
MScSteps(%) = 4.3
MScStepMax(%) = 2.2
MScD50 = 49
MScSlope = 5.7
MSFPeakAmp(mV) = 6.7
MSFNUnits = 149
MSFMeanUnitAmp(uV) = 45
MSFHuntTime(m) = 2.59
MSFError(%) = 3.71
MSFNLarge = 40.95
MSFMedianAmp(%) = 0.522
MSFMedianAmp(mV) = 0.035
MSFHalfAmpAmp(%) = 0.738
MSFHalfAmpAmp(mV) = 0.0495
MSFLargestAmp(%) = 2.45
MSFLargestAmp(mV) = 0.164
MSFMeanRS(%) = 2.01
MSFOpts = 10106121
MScDuration(min) = 6.1
MSFTraces = 448
MSFSizeLimit(uV) = 16.8
MSFLimitType = 1
MSFSmallestAmp(uV) = 17.4

EXTRA WAVEFORMS


!MScan Model
!149
	1	12.53	0.43	2
	2	12.66	0.48	2
	3	12.68	0.47	2
	4	12.72	0.4	2
	5	12.79	0.47	2
	6	12.82	0.51	2
	7	12.82	0.27	2
	8	12.88	0.51	2
	9	12.98	0.67	2
	10	13.13	0.75	2
	11	13.24	0.48	2
	12	13.41	0.51	2
	13	13.45	0.26	2
	14	13.48	0.28	2
	15	13.5	0.4	2
	16	13.56	0.38	2
	17	13.58	0.29	2
	18	13.61	0.31	2
	19	13.69	0.88	2
	20	13.76	0.56	2
	21	13.79	0.27	2
	22	13.81	0.62	2
	23	13.81	0.33	2
	24	13.84	0.35	2
	25	13.86	0.38	2
	26	13.88	0.51	2
	27	13.89	0.47	2
	28	13.94	0.71	2
	29	13.97	0.37	2
	30	14.01	0.65	2
	31	14.06	0.6	2
	32	14.11	0.36	2
	33	14.16	0.52	2
	34	14.19	0.35	2
	35	14.23	0.55	2
	36	14.26	0.49	2
	37	14.3	0.55	2
	38	14.33	0.41	2
	39	14.36	0.44	2
	40	14.39	0.52	2
	41	14.43	0.68	2
	42	14.47	0.65	2
	43	14.5	0.38	2
	44	14.51	0.26	2
	45	14.52	0.26	2
	46	14.54	0.26	2
	47	14.56	0.48	2
	48	14.6	0.68	2
	49	14.64	0.74	2
	50	14.68	0.64	2
	51	14.73	0.57	2
	52	14.79	0.68	2
	53	14.87	0.88	2
	54	14.98	0.96	2
	55	15.07	1.65	2
	56	15.13	1.09	2
	57	15.19	1.3	2
	58	15.23	1.16	2
	59	15.25	0.63	2
	60	15.28	0.6	2
	61	15.3	0.6	2
	62	15.32	0.52	2
	63	15.35	0.42	2
	64	15.36	0.33	2
	65	15.38	0.33	2
	66	15.4	0.33	2
	67	15.43	0.53	2
	68	15.46	0.47	2
	69	15.48	0.31	2
	70	15.5	0.33	2
	71	15.52	0.33	2
	72	15.55	0.67	2
	73	15.62	1.11	2
	74	15.62	0.28	2
	75	15.81	1.69	2
	76	15.88	0.43	2
	77	15.91	0.42	2
	78	15.95	0.46	2
	79	15.98	0.43	2
	80	16	0.32	2
	81	16.02	0.32	2
	82	16.04	0.31	2
	83	16.07	0.31	2
	84	16.09	0.32	2
	85	16.11	0.34	2
	86	16.13	0.36	2
	87	16.15	0.36	2
	88	16.18	0.55	2
	89	16.23	0.83	2
	90	16.28	0.75	2
	91	16.37	1.26	2
	92	16.47	1.71	2
	93	16.58	2.45	2
	94	16.65	1.03	2
	95	16.7	0.61	2
	96	16.75	0.38	2
	97	16.79	0.87	2
	98	16.84	0.99	2
	99	16.88	1.02	2
	100	16.93	1.09	2
	101	16.97	0.7	2
	102	16.99	0.42	2
	103	17.01	0.42	2
	104	17.03	0.41	2
	105	17.05	0.39	2
	106	17.08	0.42	2
	107	17.1	0.45	2
	108	17.12	0.52	2
	109	17.14	0.52	2
	110	17.16	0.52	2
	111	17.19	0.62	2
	112	17.22	0.74	2
	113	17.24	0.76	2
	114	17.27	0.74	2
	115	17.3	0.63	2
	116	17.36	1.52	2
	117	17.43	1.25	2
	118	17.5	1.16	2
	119	17.57	1.11	2
	120	17.64	1.14	2
	121	17.7	1.2	2
	122	17.77	1.44	2
	123	17.84	1.08	2
	124	17.94	1.24	2
	125	18.04	1	2
	126	18.12	0.56	2
	127	18.2	0.63	2
	128	18.34	1.41	2
	129	18.71	2.11	2
	130	19.13	1.97	2
	131	19.2	0.59	2
	132	19.28	0.63	2
	133	19.35	0.71	2
	134	19.71	0.89	2
	135	19.8	0.58	2.88
	136	19.94	0.45	2
	137	19.99	0.45	2
	138	20.04	0.49	2
	139	20.09	0.75	2
	140	20.14	0.37	2
	141	20.29	1.29	2
	142	20.65	1.44	2
	143	20.7	0.27	2
	144	20.76	0.33	2
	145	20.81	0.3	2
	146	20.93	0.46	2
	147	21.01	0.37	2
	148	21.57	1.75	2
	149	22.14	1.31	2

