File:              	C:\Qtrac\Data\Daniel M Sørensen\MScan multicentre study\Data from centres\Edmonton\Processed data\MSCC01013A.QZD
Name:              	CA.EDM.NC.9.2
Protocol:          	MSCAN-R2
Date:              	13/10/20
Start time:        	09:32:01
Age:               	23
Sex:               	F
Temperature:       	32.5
S/R sites:         	APB
NC/disease:        	NC
Operator:          	KJ
Comments:
M-SCAN DATA (6.9-2m)
Scanpts: 117, 123, 514, 536
Stim. (mA)     	Amp. (mV)
MS.1           	15.5           	13.388
MS.2           	16             	13.41
MS.3           	16             	13.4
MS.4           	16             	13.38
MS.5           	16             	13.394
MS.6           	16             	13.374
MS.7           	16             	13.398
MS.8           	16             	13.42
MS.9           	16             	13.428
MS.10          	16             	13.505
MS.11          	16             	13.457
MS.12          	16             	13.459
MS.13          	16             	13.41
MS.14          	16             	13.434
MS.15          	16             	13.434
MS.16          	16             	13.416
MS.17          	16             	13.44
MS.18          	16             	13.42
MS.19          	16             	13.43
MS.20          	16             	13.43
MS.21          	16             	13.434
MS.22          	16             	13.426
MS.23          	16             	13.449
MS.24          	15.935         	13.436
MS.25          	15.905         	13.426
MS.26          	15.872         	13.436
MS.27          	15.84          	13.463
MS.28          	15.81          	13.451
MS.29          	15.777         	13.428
MS.30          	15.745         	13.438
MS.31          	15.715         	13.459
MS.32          	15.682         	13.43
MS.33          	15.652         	13.438
MS.34          	15.62          	13.438
MS.35          	15.59          	13.424
MS.36          	15.557         	13.455
MS.37          	15.527         	13.449
MS.38          	15.495         	13.459
MS.39          	15.465         	13.43
MS.40          	15.435         	13.42
MS.41          	15.402         	13.453
MS.42          	15.372         	13.424
MS.43          	15.342         	13.455
MS.44          	15.31          	13.43
MS.45          	15.28          	13.43
MS.46          	15.25          	13.467
MS.47          	15.22          	13.451
MS.48          	15.19          	13.449
MS.49          	15.16          	13.44
MS.50          	15.127         	13.42
MS.51          	15.097         	13.449
MS.52          	15.068         	13.451
MS.53          	15.037         	13.467
MS.54          	15.007         	13.438
MS.55          	14.977         	13.473
MS.56          	14.947         	13.436
MS.57          	14.917         	13.451
MS.58          	14.887         	13.459
MS.59          	14.858         	13.475
MS.60          	14.83          	13.449
MS.61          	14.8           	13.445
MS.62          	14.77          	13.445
MS.63          	14.74          	13.445
MS.64          	14.71          	13.447
MS.65          	14.682         	13.453
MS.66          	14.652         	13.447
MS.67          	14.622         	13.432
MS.68          	14.592         	13.428
MS.69          	14.565         	13.428
MS.70          	14.535         	13.438
MS.71          	14.507         	13.459
MS.72          	14.477         	13.449
MS.73          	14.447         	13.461
MS.74          	14.42          	13.44
MS.75          	14.39          	13.487
MS.76          	14.362         	13.485
MS.77          	14.332         	13.483
MS.78          	14.305         	13.463
MS.79          	14.275         	13.459
MS.80          	14.247         	13.461
MS.81          	14.22          	13.449
MS.82          	14.19          	13.459
MS.83          	14.162         	13.443
MS.84          	14.135         	13.461
MS.85          	14.105         	13.459
MS.86          	14.077         	13.491
MS.87          	14.05          	13.523
MS.88          	14.023         	13.489
MS.89          	13.992         	13.489
MS.90          	13.965         	13.493
MS.91          	13.938         	13.511
MS.92          	13.91          	13.416
MS.93          	13.882         	13.396
MS.94          	13.855         	13.404
MS.95          	13.827         	13.324
MS.96          	13.8           	13.422
MS.97          	13.773         	13.406
MS.98          	13.745         	13.396
MS.99          	13.717         	13.418
MS.100         	13.69          	13.394
MS.101         	13.662         	13.404
MS.102         	13.635         	13.398
MS.103         	13.608         	13.36
MS.104         	13.58          	13.384
MS.105         	13.552         	13.354
MS.106         	13.525         	13.396
MS.107         	13.497         	13.392
MS.108         	13.472         	13.392
MS.109         	13.445         	13.37
MS.110         	13.417         	13.382
MS.111         	13.39          	13.362
MS.112         	13.365         	13.39
MS.113         	13.337         	13.386
MS.114         	13.31          	13.424
MS.115         	13.285         	13.396
MS.116         	13.257         	13.39
MS.117         	13.233         	13.4
MS.118         	13.205         	13.418
MS.119         	13.177         	13.404
MS.120         	13.153         	13.398
MS.121         	13.125         	13.404
MS.122         	13.1           	13.402
MS.123         	13.072         	13.4
MS.124         	13.047         	13.39
MS.125         	13.023         	13.376
MS.126         	12.995         	13.402
MS.127         	12.97          	13.376
MS.128         	12.943         	13.412
MS.129         	12.917         	13.396
MS.130         	12.892         	13.384
MS.131         	12.865         	13.414
MS.132         	12.84          	13.4
MS.133         	12.815         	13.295
MS.134         	12.79          	13.374
MS.135         	12.762         	13.388
MS.136         	12.738         	13.378
MS.137         	12.712         	13.366
MS.138         	12.688         	13.376
MS.139         	12.662         	13.394
MS.140         	12.637         	13.364
MS.141         	12.61          	13.346
MS.142         	12.585         	13.394
MS.143         	12.56          	13.159
MS.144         	12.535         	13.39
MS.145         	12.51          	13.33
MS.146         	12.485         	13.342
MS.147         	12.46          	13.308
MS.148         	12.435         	13.193
MS.149         	12.41          	13.239
MS.150         	12.385         	13.332
MS.151         	12.363         	13.179
MS.152         	12.337         	13.235
MS.153         	12.312         	13.165
MS.154         	12.287         	13.082
MS.155         	12.262         	13.1
MS.156         	12.238         	13.148
MS.157         	12.215         	13.193
MS.158         	12.19          	13.076
MS.159         	12.165         	13.169
MS.160         	12.14          	13.018
MS.161         	12.117         	12.883
MS.162         	12.092         	12.872
MS.163         	12.068         	13.001
MS.164         	12.045         	12.979
MS.165         	12.02          	12.977
MS.166         	11.995         	12.959
MS.167         	11.972         	12.879
MS.168         	11.947         	12.822
MS.169         	11.925         	12.832
MS.170         	11.9           	12.921
MS.171         	11.877         	12.738
MS.172         	11.852         	12.693
MS.173         	11.83          	12.822
MS.174         	11.805         	12.677
MS.175         	11.782         	12.721
MS.176         	11.757         	12.621
MS.177         	11.735         	12.637
MS.178         	11.712         	12.685
MS.179         	11.688         	12.603
MS.180         	11.665         	12.595
MS.181         	11.642         	12.586
MS.182         	11.617         	12.558
MS.183         	11.595         	11.833
MS.184         	11.572         	12.413
MS.185         	11.55          	12.54
MS.186         	11.525         	12.349
MS.187         	11.502         	11.886
MS.188         	11.48          	11.827
MS.189         	11.457         	11.944
MS.190         	11.435         	11.793
MS.191         	11.41          	11.585
MS.192         	11.387         	11.583
MS.193         	11.365         	11.459
MS.194         	11.342         	11.63
MS.195         	11.32          	11.513
MS.196         	11.297         	11.275
MS.197         	11.275         	11.575
MS.198         	11.252         	11.523
MS.199         	11.23          	11.38
MS.200         	11.207         	11.436
MS.201         	11.185         	11.384
MS.202         	11.162         	11.251
MS.203         	11.14          	11.12
MS.204         	11.117         	11.221
MS.205         	11.095         	11.007
MS.206         	11.075         	11.209
MS.207         	11.052         	11.11
MS.208         	11.03          	10.876
MS.209         	11.007         	10.993
MS.210         	10.985         	10.921
MS.211         	10.962         	10.891
MS.212         	10.943         	10.828
MS.213         	10.92          	10.784
MS.214         	10.898         	10.546
MS.215         	10.877         	10.413
MS.216         	10.855         	10.733
MS.217         	10.832         	10.675
MS.218         	10.81          	10.731
MS.219         	10.79          	10.601
MS.220         	10.767         	10.55
MS.221         	10.747         	10.004
MS.222         	10.725         	10.522
MS.223         	10.702         	9.974
MS.224         	10.682         	10.327
MS.225         	10.66          	10.26
MS.226         	10.64          	10.178
MS.227         	10.617         	9.839
MS.228         	10.597         	9.795
MS.229         	10.575         	9.698
MS.230         	10.555         	9.763
MS.231         	10.535         	9.674
MS.232         	10.512         	9.493
MS.233         	10.492         	9.098
MS.234         	10.47          	9.491
MS.235         	10.45          	8.836
MS.236         	10.43          	8.981
MS.237         	10.407         	9.338
MS.238         	10.387         	8.75
MS.239         	10.367         	9.08
MS.240         	10.345         	8.445
MS.241         	10.325         	8.508
MS.242         	10.305         	8.302
MS.243         	10.285         	8.522
MS.244         	10.262         	7.599
MS.245         	10.242         	7.67
MS.246         	10.222         	8.449
MS.247         	10.202         	7.835
MS.248         	10.182         	7.636
MS.249         	10.162         	7.078
MS.250         	10.14          	6.77
MS.251         	10.12          	7.483
MS.252         	10.1           	7.084
MS.253         	10.08          	6.751
MS.254         	10.06          	7.136
MS.255         	10.04          	6.892
MS.256         	10.02          	6.375
MS.257         	10             	6.262
MS.258         	9.98           	6.022
MS.259         	9.96           	6.204
MS.260         	9.94           	5.887
MS.261         	9.92           	6.049
MS.262         	9.9            	5.95
MS.263         	9.88           	6.107
MS.264         	9.86           	5.813
MS.265         	9.842          	5.593
MS.266         	9.823          	5.76
MS.267         	9.802          	5.513
MS.268         	9.782          	5.275
MS.269         	9.762          	5.477
MS.270         	9.742          	5.211
MS.271         	9.725          	4.804
MS.272         	9.705          	4.87
MS.273         	9.685          	4.923
MS.274         	9.665          	4.381
MS.275         	9.648          	4.582
MS.276         	9.627          	4.572
MS.277         	9.608          	4.463
MS.278         	9.587          	3.835
MS.279         	9.57           	4.488
MS.280         	9.55           	3.938
MS.281         	9.532          	3.994
MS.282         	9.512          	3.807
MS.283         	9.492          	3.986
MS.284         	9.475          	4.095
MS.285         	9.455          	3.448
MS.286         	9.438          	3.192
MS.287         	9.417          	3.728
MS.288         	9.4            	3.148
MS.289         	9.38           	3.229
MS.290         	9.363          	3.182
MS.291         	9.342          	2.912
MS.292         	9.325          	3.283
MS.293         	9.305          	3.166
MS.294         	9.287          	2.737
MS.295         	9.267          	2.941
MS.296         	9.25           	2.989
MS.297         	9.23           	2.824
MS.298         	9.212          	2.564
MS.299         	9.195          	2.584
MS.300         	9.175          	2.733
MS.301         	9.158          	2.588
MS.302         	9.14           	2.487
MS.303         	9.12           	2.542
MS.304         	9.102          	2.286
MS.305         	9.085          	2.038
MS.306         	9.068          	2.248
MS.307         	9.047          	1.885
MS.308         	9.03           	2.141
MS.309         	9.012          	1.65
MS.310         	8.995          	1.748
MS.311         	8.977          	1.93
MS.312         	8.957          	1.517
MS.313         	8.94           	1.795
MS.314         	8.922          	1.4
MS.315         	8.905          	1.946
MS.316         	8.887          	1.69
MS.317         	8.87           	1.686
MS.318         	8.852          	1.333
MS.319         	8.835          	1.327
MS.320         	8.815          	1.591
MS.321         	8.797          	1.17
MS.322         	8.78           	1.309
MS.323         	8.762          	1.257
MS.324         	8.745          	1.265
MS.325         	8.727          	1.215
MS.326         	8.71           	1.198
MS.327         	8.693          	1.18
MS.328         	8.675          	1.068
MS.329         	8.66           	1.12
MS.330         	8.642          	1.1
MS.331         	8.625          	1.112
MS.332         	8.608          	1.068
MS.333         	8.59           	1.09
MS.334         	8.573          	0.957
MS.335         	8.555          	1.051
MS.336         	8.537          	1.015
MS.337         	8.523          	0.769
MS.338         	8.505          	0.975
MS.339         	8.488          	0.989
MS.340         	8.47           	0.832
MS.341         	8.452          	0.92
MS.342         	8.438          	0.9
MS.343         	8.42           	0.892
MS.344         	8.403          	0.975
MS.345         	8.385          	0.884
MS.346         	8.37           	0.679
MS.347         	8.352          	0.741
MS.348         	8.335          	0.715
MS.349         	8.32           	0.83
MS.350         	8.302          	0.868
MS.351         	8.285          	0.741
MS.352         	8.27           	0.61
MS.353         	8.252          	0.546
MS.354         	8.238          	0.711
MS.355         	8.22           	0.55
MS.356         	8.202          	0.538
MS.357         	8.188          	0.544
MS.358         	8.17           	0.54
MS.359         	8.155          	0.546
MS.360         	8.137          	0.552
MS.361         	8.122          	0.55
MS.362         	8.105          	0.612
MS.363         	8.09           	0.469
MS.364         	8.073          	0.455
MS.365         	8.057          	0.564
MS.366         	8.042          	0.592
MS.367         	8.025          	0.471
MS.368         	8.01           	0.548
MS.369         	7.992          	0.479
MS.370         	7.977          	0.481
MS.371         	7.96           	0.546
MS.372         	7.945          	0.461
MS.373         	7.93           	0.54
MS.374         	7.912          	0.534
MS.375         	7.898          	0.459
MS.376         	7.882          	0.453
MS.377         	7.867          	0.461
MS.378         	7.85           	0.449
MS.379         	7.835          	0.459
MS.380         	7.82           	0.457
MS.381         	7.802          	0.457
MS.382         	7.787          	0.455
MS.383         	7.773          	0.455
MS.384         	7.757          	0.457
MS.385         	7.742          	0.455
MS.386         	7.725          	0.457
MS.387         	7.71           	0.473
MS.388         	7.695          	0.457
MS.389         	7.68           	0.459
MS.390         	7.665          	0.457
MS.391         	7.65           	0.465
MS.392         	7.635          	0.413
MS.393         	7.617          	0.459
MS.394         	7.602          	0.387
MS.395         	7.587          	0.407
MS.396         	7.572          	0.399
MS.397         	7.557          	0.332
MS.398         	7.543          	0.405
MS.399         	7.527          	0.397
MS.400         	7.512          	0.405
MS.401         	7.497          	0.399
MS.402         	7.482          	0.403
MS.403         	7.467          	0.401
MS.404         	7.452          	0.403
MS.405         	7.438          	0.407
MS.406         	7.422          	0.403
MS.407         	7.407          	0.401
MS.408         	7.392          	0.401
MS.409         	7.378          	0.34
MS.410         	7.365          	0.405
MS.411         	7.35           	0.403
MS.412         	7.335          	0.403
MS.413         	7.32           	0.403
MS.414         	7.305          	0.403
MS.415         	7.29           	0.405
MS.416         	7.275          	0.405
MS.417         	7.262          	0.403
MS.418         	7.247          	0.403
MS.419         	7.233          	0.405
MS.420         	7.217          	0.403
MS.421         	7.202          	0.401
MS.422         	7.19           	0.401
MS.423         	7.175          	0.405
MS.424         	7.16           	0.401
MS.425         	7.145          	0.405
MS.426         	7.132          	0.411
MS.427         	7.117          	0.437
MS.428         	7.102          	0.399
MS.429         	7.09           	0.413
MS.430         	7.075          	0.403
MS.431         	7.06           	0.409
MS.432         	7.047          	0.407
MS.433         	7.032          	0.439
MS.434         	7.017          	0.403
MS.435         	7.005          	0.399
MS.436         	6.99           	0.399
MS.437         	6.977          	0.401
MS.438         	6.962          	0.405
MS.439         	6.95           	0.409
MS.440         	6.935          	0.403
MS.441         	6.92           	0.399
MS.442         	6.907          	0.411
MS.443         	6.892          	0.407
MS.444         	6.88           	0.401
MS.445         	6.865          	0.403
MS.446         	6.852          	0.405
MS.447         	6.837          	0.411
MS.448         	6.825          	0.401
MS.449         	6.812          	0.401
MS.450         	6.797          	0.403
MS.451         	6.785          	0.401
MS.452         	6.77           	0.405
MS.453         	6.757          	0.405
MS.454         	6.742          	0.405
MS.455         	6.73           	0.403
MS.456         	6.717          	0.401
MS.457         	6.702          	0.33
MS.458         	6.69           	0.405
MS.459         	6.677          	0.405
MS.460         	6.662          	0.407
MS.461         	6.65           	0.403
MS.462         	6.637          	0.361
MS.463         	6.622          	0.405
MS.464         	6.61           	0.403
MS.465         	6.597          	0.014
MS.466         	6.582          	0.405
MS.467         	6.57           	0.407
MS.468         	6.557          	0.016
MS.469         	6.545          	0.403
MS.470         	6.53           	0.405
MS.471         	6.517          	0.357
MS.472         	6.505          	0.403
MS.473         	6.492          	0.016
MS.474         	6.48           	0.433
MS.475         	6.465          	0.016
MS.476         	6.452          	0.012
MS.477         	6.44           	0.016
MS.478         	6.427          	0.405
MS.479         	6.415          	0.399
MS.480         	6.402          	0.016
MS.481         	6.39           	0.016
MS.482         	6.378          	0.401
MS.483         	6.362          	0.016
MS.484         	6.35           	0.018
MS.485         	6.338          	0.014
MS.486         	6.325          	0.018
MS.487         	6.312          	0.02
MS.488         	6.3            	0.014
MS.489         	6.287          	0.016
MS.490         	6.275          	0.014
MS.491         	6.262          	0.012
MS.492         	6.25           	0.014
MS.493         	6.237          	0.004
MS.494         	6.225          	0.044
MS.495         	6.213          	0.01
MS.496         	6.2            	0.016
MS.497         	6.188          	0.014
MS.498         	6.175          	0.008
MS.499         	6.162          	0.014
MS.500         	6.15           	0.014
MS.501         	6.137          	0.014
MS.502         	6.128          	0.012
MS.503         	6.115          	0.016
MS.504         	6.102          	0.012
MS.505         	6.09           	0.016
MS.506         	6.077          	0.012
MS.507         	6.065          	0.014
MS.508         	6.052          	0.014
MS.509         	6.04           	0.014
MS.510         	6.03           	0.012
MS.511         	6.017          	0.014
MS.512         	6.005          	0.014
MS.513         	5.992          	0.016
MS.514         	5.98           	0.012
MS.515         	5.97           	0.014
MS.516         	5.957          	0.012
MS.517         	5.945          	0.012
MS.518         	5.932          	0.016
MS.519         	5.922          	0.008
MS.520         	5.91           	0.016
MS.521         	5.898          	0.014
MS.522         	5.885          	0.012
MS.523         	5.875          	0.018
MS.524         	5.862          	0.01
MS.525         	5.85           	0.01
MS.526         	5.84           	0.01
MS.527         	5.827          	0.014
MS.528         	5.815          	0.04
MS.529         	5.805          	0.016
MS.530         	5.793          	0.02
MS.531         	5.78           	-0.006
MS.532         	5.77           	0.008
MS.533         	5.757          	0.01
MS.534         	5.747          	0.008
MS.535         	5.735          	0.014
MS.536         	5.722          	0.018
DERIVED EXCITABILITY VARIABLES
Program = QTracP 3/4/2020
Threshold method = 6 (optimised for CAP, using data for present condition only)
SR method = 1 (using actual data values)
6.                 	0.000               	Peak response\(mV)
9.                 	32.5                	Temperature ( C)
17.                	23                  	Age (years)
18.                	2                   	Sex (M=1, F=2)

EXTRA VARIABLES

MScPeak(mV) = 13.41
MScS5(mA) = 8.25
MScS50(mA) = 10.03
MScS95(mA) = 11.85
MScNSteps = 8
MScSteps(%) = 20.4
MScStepMax(%) = 3.5
MScD50 = 34
MScSlope = 7.85
MSFPeakAmp(mV) = 13.4
MSFNUnits = 139
MSFMeanUnitAmp(uV) = 96.3
MSFHuntTime(m) = 2.66
MSFError(%) = 3.38
MSFNLarge = 50.46
MSFMedianAmp(%) = 0.682
MSFMedianAmp(mV) = 0.0913
MSFHalfAmpAmp(%) = 0.782
MSFHalfAmpAmp(mV) = 0.105
MSFLargestAmp(%) = 2.76
MSFLargestAmp(mV) = 0.369
MSFMeanRS(%) = 1.99
MSFOpts = 10106121
MScDuration(min) = 4.9
MSFTraces = 420
MSFSizeLimit(uV) = 33.5
MSFLimitType = 1
MSFSmallestAmp(uV) = 37.3

EXTRA WAVEFORMS


!MScan Model
!139
	1	6.45	2.76	2
	2	7.79	0.63	2
	3	8.09	0.56	2
	4	8.18	0.48	2
	5	8.23	0.37	2
	6	8.28	0.31	2
	7	8.32	0.33	2
	8	8.38	0.56	2
	9	8.46	0.72	2
	10	8.52	0.47	2
	11	8.57	0.46	2
	12	8.62	0.4	2
	13	8.68	0.51	2
	14	8.72	0.78	2
	15	8.78	0.71	2
	16	8.83	0.79	2
	17	8.87	0.72	2
	18	8.92	0.9	2
	19	8.95	0.69	2
	20	8.98	0.75	2
	21	9.01	0.8	2
	22	9.03	0.59	2
	23	9.05	0.5	2
	24	9.08	0.57	2
	25	9.1	0.63	2
	26	9.12	0.63	2
	27	9.14	0.53	2
	28	9.16	0.5	2
	29	9.19	0.55	2
	30	9.21	0.68	2
	31	9.24	0.9	2
	32	9.27	0.92	2
	33	9.29	0.78	2
	34	9.32	0.87	2
	35	9.36	0.9	2
	36	9.39	0.87	2
	37	9.41	0.69	2
	38	9.43	0.72	2
	39	9.46	0.83	2
	40	9.48	0.77	2
	41	9.5	0.62	2
	42	9.52	0.59	2
	43	9.53	0.65	2
	44	9.55	0.7	2
	45	9.57	0.69	2
	46	9.58	0.54	2
	47	9.6	0.56	2
	48	9.61	0.57	2
	49	9.62	0.6	2
	50	9.64	0.61	2
	51	9.65	0.6	2
	52	9.67	0.56	2
	53	9.68	0.63	2
	54	9.7	0.55	2
	55	9.71	0.5	2
	56	9.73	0.49	2
	57	9.74	0.45	2
	58	9.76	0.59	2
	59	9.77	0.57	2
	60	9.78	0.55	2
	61	9.8	0.57	2
	62	9.81	0.57	2
	63	9.82	0.57	2
	64	9.84	0.57	2
	65	9.85	0.55	2
	66	9.87	0.66	2
	67	9.89	0.88	2
	68	9.91	0.93	2
	69	9.93	0.89	2
	70	9.95	0.8	2
	71	9.98	0.81	2
	72	10	0.85	2
	73	10.02	0.95	2
	74	10.04	1.07	2
	75	10.06	0.94	2
	76	10.08	0.83	2
	77	10.1	0.71	2
	78	10.12	0.78	2
	79	10.14	0.85	2
	80	10.16	0.94	2
	81	10.18	1.15	2
	82	10.21	1.28	2
	83	10.23	1.17	2
	84	10.26	1.1	2
	85	10.28	1	2
	86	10.3	0.87	2
	87	10.32	0.83	2
	88	10.34	0.84	2
	89	10.37	0.97	2
	90	10.38	0.83	2
	91	10.4	0.8	2
	92	10.42	0.74	2
	93	10.44	0.68	2
	94	10.46	0.68	2
	95	10.48	0.81	2
	96	10.5	1.01	2
	97	10.53	0.99	2
	98	10.55	0.84	2
	99	10.58	0.83	2
	100	10.61	0.98	2
	101	10.64	0.93	2
	102	10.67	0.68	2
	103	10.7	0.75	2
	104	10.74	0.91	2
	105	10.78	0.83	2
	106	10.82	0.76	2
	107	10.87	0.94	2
	108	10.91	0.8	2
	109	10.95	0.5	2
	110	10.97	0.57	2
	111	11	0.54	2
	112	11.03	0.45	2
	113	11.06	0.44	2
	114	11.09	0.34	2
	115	11.12	0.64	2
	116	11.12	0.32	2
	117	11.16	0.49	2
	118	11.2	0.63	2
	119	11.24	0.61	2
	120	11.29	0.89	2
	121	11.34	0.88	2
	122	11.38	0.68	2
	123	11.42	0.8	2
	124	11.46	0.76	2.4
	125	11.5	0.84	1.6
	126	11.54	0.56	1.6
	127	11.65	2.11	1.6
	128	11.78	2.1	2
	129	11.88	0.55	2
	130	11.93	0.46	2.4
	131	11.98	0.33	2
	132	12.02	0.28	2
	133	12.06	0.28	2
	134	12.11	0.3	2
	135	12.15	0.28	2
	136	12.2	0.31	2
	137	12.27	0.41	2
	138	12.37	0.57	2
	139	12.51	0.57	2

