File:              	C:\Qtrac\Data\Daniel M Sørensen\MScan multicentre study\Data from centres\Edmonton\MSCC00309B.QZD
Name:              	CA.EDM.NC.6.2
Protocol:          	MSCAN-R2
Date:              	9/3/20
Start time:        	12:57:57
Age:               	66
Sex:               	M
Temperature:       	31.2
S/R sites:         	Ulnar Wr-ADM
NC/disease:        	NC
Operator:          	KJ
Comments:

M-SCAN DATA (6.6-1.5m)
Scanpts: 44, 48, 530, 552
Stim. (mA)     	Amp. (mV)
MS.1           	17.5           	8.989
MS.2           	17.5           	9.015
MS.3           	17.5           	8.991
MS.4           	17.5           	8.985
MS.5           	17.5           	8.993
MS.6           	17.5           	8.989
MS.7           	17.5           	9.013
MS.8           	17.5           	9.031
MS.9           	17.5           	9.019
MS.10          	17.5           	9.034
MS.11          	17.5           	9.013
MS.12          	17.5           	9.017
MS.13          	17.5           	8.989
MS.14          	17.5           	9.034
MS.15          	17.5           	9.036
MS.16          	17.5           	9.046
MS.17          	17.5           	9.034
MS.18          	17.5           	9.019
MS.19          	17.5           	9.027
MS.20          	17.5           	9.036
MS.21          	17.5           	9.05
MS.22          	17.5           	9.023
MS.23          	17.5           	9.074
MS.24          	17.43          	8.991
MS.25          	17.395         	9.044
MS.26          	17.36          	9.029
MS.27          	17.325         	9.031
MS.28          	17.29          	9.054
MS.29          	17.257         	9.042
MS.30          	17.222         	9.08
MS.31          	17.188         	9.06
MS.32          	17.153         	9.066
MS.33          	17.12          	9.06
MS.34          	17.085         	9.048
MS.35          	17.05          	9.076
MS.36          	17.017         	9.092
MS.37          	16.983         	9.07
MS.38          	16.95          	9.066
MS.39          	16.915         	9.104
MS.40          	16.88          	9.094
MS.41          	16.847         	9.084
MS.42          	16.812         	9.124
MS.43          	16.78          	9.082
MS.44          	16.747         	9.094
MS.45          	16.712         	9.122
MS.46          	16.68          	9.092
MS.47          	16.647         	9.106
MS.48          	16.612         	9.122
MS.49          	16.58          	9.102
MS.50          	16.547         	9.074
MS.51          	16.515         	9.082
MS.52          	16.48          	9.044
MS.53          	16.448         	9.108
MS.54          	16.415         	9.066
MS.55          	16.382         	9.084
MS.56          	16.35          	9.11
MS.57          	16.317         	9.031
MS.58          	16.285         	9.088
MS.59          	16.253         	9.193
MS.60          	16.22          	8.999
MS.61          	16.188         	8.993
MS.62          	16.155         	8.989
MS.63          	16.122         	9.04
MS.64          	16.09          	9.084
MS.65          	16.057         	9.108
MS.66          	16.025         	9.07
MS.67          	15.992         	9.007
MS.68          	15.962         	9.096
MS.69          	15.93          	8.957
MS.70          	15.898         	9.096
MS.71          	15.867         	9.001
MS.72          	15.835         	9.064
MS.73          	15.802         	9.158
MS.74          	15.773         	9.088
MS.75          	15.74          	9.084
MS.76          	15.707         	9.021
MS.77          	15.677         	8.951
MS.78          	15.645         	9.08
MS.79          	15.615         	9.046
MS.80          	15.582         	9.11
MS.81          	15.552         	9.088
MS.82          	15.52          	8.993
MS.83          	15.49          	8.991
MS.84          	15.46          	8.981
MS.85          	15.427         	9.025
MS.86          	15.398         	9.015
MS.87          	15.367         	9.003
MS.88          	15.335         	9.017
MS.89          	15.305         	8.927
MS.90          	15.275         	9.011
MS.91          	15.245         	8.979
MS.92          	15.212         	8.888
MS.93          	15.182         	8.997
MS.94          	15.152         	8.88
MS.95          	15.122         	8.874
MS.96          	15.092         	8.888
MS.97          	15.062         	8.886
MS.98          	15.032         	8.893
MS.99          	15.002         	8.776
MS.100         	14.972         	8.86
MS.101         	14.943         	8.788
MS.102         	14.912         	8.754
MS.103         	14.882         	8.758
MS.104         	14.852         	8.711
MS.105         	14.822         	8.792
MS.106         	14.792         	8.76
MS.107         	14.765         	8.776
MS.108         	14.735         	8.647
MS.109         	14.705         	8.695
MS.110         	14.675         	8.54
MS.111         	14.648         	8.558
MS.112         	14.617         	8.588
MS.113         	14.587         	8.48
MS.114         	14.56          	8.6
MS.115         	14.53          	8.524
MS.116         	14.5           	8.512
MS.117         	14.472         	8.459
MS.118         	14.443         	8.437
MS.119         	14.415         	8.365
MS.120         	14.385         	8.355
MS.121         	14.358         	8.401
MS.122         	14.327         	8.266
MS.123         	14.3           	8.451
MS.124         	14.27          	8.24
MS.125         	14.242         	8.369
MS.126         	14.212         	8.461
MS.127         	14.185         	8.399
MS.128         	14.157         	8.455
MS.129         	14.127         	8.274
MS.130         	14.1           	8.028
MS.131         	14.072         	8.099
MS.132         	14.045         	7.887
MS.133         	14.015         	7.996
MS.134         	13.987         	8.067
MS.135         	13.96          	8.045
MS.136         	13.932         	7.898
MS.137         	13.905         	7.893
MS.138         	13.877         	7.974
MS.139         	13.85          	7.793
MS.140         	13.82          	7.942
MS.141         	13.792         	7.845
MS.142         	13.765         	7.559
MS.143         	13.737         	7.865
MS.144         	13.71          	7.573
MS.145         	13.682         	7.908
MS.146         	13.655         	7.612
MS.147         	13.63          	7.803
MS.148         	13.602         	7.734
MS.149         	13.575         	7.563
MS.150         	13.547         	7.414
MS.151         	13.52          	7.426
MS.152         	13.492         	7.483
MS.153         	13.467         	7.581
MS.154         	13.44          	7.422
MS.155         	13.412         	7.418
MS.156         	13.385         	7.527
MS.157         	13.36          	7.352
MS.158         	13.332         	7.064
MS.159         	13.305         	7.136
MS.160         	13.28          	7.205
MS.161         	13.252         	7.009
MS.162         	13.225         	6.967
MS.163         	13.2           	7.197
MS.164         	13.172         	7.072
MS.165         	13.148         	6.782
MS.166         	13.12          	6.828
MS.167         	13.095         	6.743
MS.168         	13.068         	6.788
MS.169         	13.042         	6.749
MS.170         	13.015         	6.639
MS.171         	12.99          	6.647
MS.172         	12.965         	6.552
MS.173         	12.938         	6.78
MS.174         	12.912         	6.431
MS.175         	12.887         	6.596
MS.176         	12.86          	6.546
MS.177         	12.835         	6.383
MS.178         	12.81          	6.476
MS.179         	12.785         	6.367
MS.180         	12.757         	6.5
MS.181         	12.733         	6.318
MS.182         	12.707         	6.443
MS.183         	12.682         	6.331
MS.184         	12.657         	6.296
MS.185         	12.632         	6.377
MS.186         	12.608         	6.228
MS.187         	12.58          	6.349
MS.188         	12.555         	6.173
MS.189         	12.53          	6.465
MS.190         	12.505         	6.296
MS.191         	12.48          	6.351
MS.192         	12.455         	6.177
MS.193         	12.43          	6.131
MS.194         	12.405         	6.22
MS.195         	12.382         	6.222
MS.196         	12.358         	6.21
MS.197         	12.332         	6.133
MS.198         	12.307         	5.974
MS.199         	12.282         	6.075
MS.200         	12.257         	5.914
MS.201         	12.233         	6.242
MS.202         	12.21          	5.891
MS.203         	12.185         	5.682
MS.204         	12.16          	5.724
MS.205         	12.135         	5.809
MS.206         	12.113         	5.666
MS.207         	12.087         	5.692
MS.208         	12.062         	5.71
MS.209         	12.04          	5.875
MS.210         	12.015         	5.712
MS.211         	11.992         	5.499
MS.212         	11.967         	5.487
MS.213         	11.943         	5.541
MS.214         	11.92          	5.603
MS.215         	11.895         	5.287
MS.216         	11.872         	5.342
MS.217         	11.847         	5.213
MS.218         	11.825         	5.47
MS.219         	11.8           	5.378
MS.220         	11.778         	5.195
MS.221         	11.755         	5.348
MS.222         	11.73          	5.039
MS.223         	11.707         	5.092
MS.224         	11.682         	5.148
MS.225         	11.66          	5.231
MS.226         	11.637         	5.086
MS.227         	11.615         	5.126
MS.228         	11.59          	5.104
MS.229         	11.568         	4.87
MS.230         	11.545         	5.068
MS.231         	11.523         	5.08
MS.232         	11.497         	5.132
MS.233         	11.475         	4.568
MS.234         	11.452         	4.679
MS.235         	11.43          	4.554
MS.236         	11.407         	4.921
MS.237         	11.385         	4.703
MS.238         	11.36          	4.139
MS.239         	11.337         	4.486
MS.240         	11.315         	4.322
MS.241         	11.292         	4.244
MS.242         	11.27          	3.972
MS.243         	11.247         	4.306
MS.244         	11.225         	4.183
MS.245         	11.202         	4.222
MS.246         	11.18          	3.936
MS.247         	11.157         	3.944
MS.248         	11.135         	3.875
MS.249         	11.115         	3.575
MS.250         	11.092         	3.855
MS.251         	11.07          	3.587
MS.252         	11.047         	3.799
MS.253         	11.025         	3.595
MS.254         	11.002         	3.914
MS.255         	10.983         	3.573
MS.256         	10.96          	3.571
MS.257         	10.938         	3.495
MS.258         	10.915         	3.527
MS.259         	10.895         	3.468
MS.260         	10.872         	3.513
MS.261         	10.85          	3.462
MS.262         	10.827         	3.462
MS.263         	10.807         	3.484
MS.264         	10.785         	3.454
MS.265         	10.765         	3.563
MS.266         	10.742         	3.493
MS.267         	10.72          	3.541
MS.268         	10.7           	3.352
MS.269         	10.677         	3.325
MS.270         	10.657         	3.362
MS.271         	10.635         	3.245
MS.272         	10.615         	3.257
MS.273         	10.592         	3.273
MS.274         	10.573         	3.078
MS.275         	10.55          	2.9
MS.276         	10.53          	3.064
MS.277         	10.507         	2.993
MS.278         	10.488         	2.977
MS.279         	10.467         	2.81
MS.280         	10.445         	2.647
MS.281         	10.425         	2.919
MS.282         	10.405         	2.423
MS.283         	10.382         	2.788
MS.284         	10.363         	2.463
MS.285         	10.342         	2.83
MS.286         	10.32          	2.814
MS.287         	10.3           	2.739
MS.288         	10.28          	2.427
MS.289         	10.26          	2.351
MS.290         	10.24          	2.645
MS.291         	10.217         	2.612
MS.292         	10.198         	2.677
MS.293         	10.177         	2.344
MS.294         	10.157         	2.683
MS.295         	10.137         	2.612
MS.296         	10.117         	2.147
MS.297         	10.097         	2.201
MS.298         	10.077         	2.111
MS.299         	10.057         	2.238
MS.300         	10.035         	2.175
MS.301         	10.015         	2.268
MS.302         	9.995          	2.117
MS.303         	9.975          	2.03
MS.304         	9.955          	2.125
MS.305         	9.938          	1.996
MS.306         	9.917          	2.036
MS.307         	9.898          	2.044
MS.308         	9.877          	2.048
MS.309         	9.858          	1.919
MS.310         	9.837          	2.075
MS.311         	9.818          	1.932
MS.312         	9.797          	1.938
MS.313         	9.778          	1.877
MS.314         	9.76           	1.942
MS.315         	9.74           	1.96
MS.316         	9.72           	1.779
MS.317         	9.7            	1.901
MS.318         	9.682          	1.797
MS.319         	9.662          	1.797
MS.320         	9.642          	1.793
MS.321         	9.622          	1.807
MS.322         	9.605          	1.756
MS.323         	9.585          	1.736
MS.324         	9.565          	1.73
MS.325         	9.547          	1.748
MS.326         	9.528          	1.736
MS.327         	9.507          	1.672
MS.328         	9.49           	1.748
MS.329         	9.47           	1.666
MS.330         	9.452          	1.728
MS.331         	9.432          	1.644
MS.332         	9.415          	1.662
MS.333         	9.395          	1.69
MS.334         	9.377          	1.625
MS.335         	9.358          	1.704
MS.336         	9.34           	1.597
MS.337         	9.32           	1.635
MS.338         	9.302          	1.702
MS.339         	9.283          	1.627
MS.340         	9.265          	1.635
MS.341         	9.245          	1.611
MS.342         	9.227          	1.583
MS.343         	9.21           	1.486
MS.344         	9.19           	1.611
MS.345         	9.172          	1.523
MS.346         	9.155          	1.573
MS.347         	9.135          	1.305
MS.348         	9.117          	1.537
MS.349         	9.1            	1.364
MS.350         	9.08           	1.488
MS.351         	9.062          	1.484
MS.352         	9.045          	1.299
MS.353         	9.028          	1.233
MS.354         	9.01           	1.17
MS.355         	8.99           	1.396
MS.356         	8.972          	1.211
MS.357         	8.955          	1.211
MS.358         	8.938          	1.14
MS.359         	8.92           	1.126
MS.360         	8.903          	1.108
MS.361         	8.882          	1.057
MS.362         	8.865          	1.303
MS.363         	8.847          	1.134
MS.364         	8.83           	1.14
MS.365         	8.812          	1.065
MS.366         	8.795          	1.164
MS.367         	8.778          	1.086
MS.368         	8.76           	1.17
MS.369         	8.742          	1.09
MS.370         	8.725          	1.003
MS.371         	8.707          	1.078
MS.372         	8.69           	0.997
MS.373         	8.672          	1.059
MS.374         	8.655          	1.007
MS.375         	8.637          	1.003
MS.376         	8.62           	1.009
MS.377         	8.602          	1.053
MS.378         	8.587          	1.011
MS.379         	8.57           	0.935
MS.380         	8.552          	1.003
MS.381         	8.535          	0.856
MS.382         	8.517          	0.959
MS.383         	8.5            	0.912
MS.384         	8.485          	0.916
MS.385         	8.467          	0.8
MS.386         	8.45           	0.924
MS.387         	8.432          	0.749
MS.388         	8.417          	0.924
MS.389         	8.4            	0.822
MS.390         	8.382          	0.816
MS.391         	8.365          	0.669
MS.392         	8.35           	0.79
MS.393         	8.332          	0.693
MS.394         	8.315          	0.641
MS.395         	8.3            	0.592
MS.396         	8.283          	0.536
MS.397         	8.267          	0.608
MS.398         	8.25           	0.558
MS.399         	8.233          	0.568
MS.400         	8.217          	0.52
MS.401         	8.2            	0.61
MS.402         	8.185          	0.572
MS.403         	8.167          	0.524
MS.404         	8.153          	0.459
MS.405         	8.135          	0.522
MS.406         	8.12           	0.493
MS.407         	8.102          	0.544
MS.408         	8.087          	0.334
MS.409         	8.07           	0.437
MS.410         	8.055          	0.528
MS.411         	8.037          	0.441
MS.412         	8.023          	0.443
MS.413         	8.005          	0.506
MS.414         	7.99           	0.403
MS.415         	7.975          	0.352
MS.416         	7.957          	0.324
MS.417         	7.942          	0.419
MS.418         	7.927          	0.326
MS.419         	7.91           	0.34
MS.420         	7.895          	0.357
MS.421         	7.88           	0.312
MS.422         	7.862          	0.326
MS.423         	7.847          	0.296
MS.424         	7.832          	0.314
MS.425         	7.815          	0.302
MS.426         	7.8            	0.324
MS.427         	7.785          	0.338
MS.428         	7.77           	0.282
MS.429         	7.755          	0.25
MS.430         	7.737          	0.248
MS.431         	7.722          	0.266
MS.432         	7.707          	0.31
MS.433         	7.692          	0.26
MS.434         	7.677          	0.262
MS.435         	7.662          	0.23
MS.436         	7.645          	0.298
MS.437         	7.63           	0.29
MS.438         	7.615          	0.232
MS.439         	7.6            	0.23
MS.440         	7.585          	0.252
MS.441         	7.57           	0.238
MS.442         	7.555          	0.214
MS.443         	7.54           	0.222
MS.444         	7.525          	0.193
MS.445         	7.51           	0.24
MS.446         	7.495          	0.181
MS.447         	7.48           	0.22
MS.448         	7.465          	0.171
MS.449         	7.45           	0.149
MS.450         	7.435          	0.189
MS.451         	7.42           	0.129
MS.452         	7.405          	0.133
MS.453         	7.39           	0.163
MS.454         	7.375          	0.185
MS.455         	7.36           	0.137
MS.456         	7.347          	0.177
MS.457         	7.332          	0.115
MS.458         	7.317          	0.129
MS.459         	7.302          	0.123
MS.460         	7.287          	0.125
MS.461         	7.273          	0.083
MS.462         	7.257          	0.117
MS.463         	7.245          	0.095
MS.464         	7.23           	0.083
MS.465         	7.215          	0.113
MS.466         	7.2            	0.066
MS.467         	7.188          	0.115
MS.468         	7.172          	0.081
MS.469         	7.157          	0.087
MS.470         	7.142          	0.068
MS.471         	7.13           	0.07
MS.472         	7.115          	0.109
MS.473         	7.1            	0.054
MS.474         	7.087          	0.05
MS.475         	7.072          	0.042
MS.476         	7.057          	0.054
MS.477         	7.045          	0.097
MS.478         	7.03           	0.048
MS.479         	7.015          	0.054
MS.480         	7.003          	0.034
MS.481         	6.987          	0.062
MS.482         	6.975          	0.052
MS.483         	6.96           	0.048
MS.484         	6.945          	0.046
MS.485         	6.932          	0.048
MS.486         	6.918          	0.052
MS.487         	6.905          	0.034
MS.488         	6.89           	0.032
MS.489         	6.878          	0.05
MS.490         	6.862          	0.034
MS.491         	6.85           	0.05
MS.492         	6.835          	0.052
MS.493         	6.822          	0.048
MS.494         	6.807          	0.042
MS.495         	6.795          	0.032
MS.496         	6.782          	0.034
MS.497         	6.767          	0.046
MS.498         	6.755          	0.056
MS.499         	6.74           	0.04
MS.500         	6.727          	0.058
MS.501         	6.715          	0.034
MS.502         	6.7            	0.028
MS.503         	6.688          	0.034
MS.504         	6.675          	0.036
MS.505         	6.66           	0.04
MS.506         	6.648          	0.038
MS.507         	6.635          	0.038
MS.508         	6.62           	0.042
MS.509         	6.608          	0.028
MS.510         	6.595          	0.044
MS.511         	6.58           	0.028
MS.512         	6.567          	0.03
MS.513         	6.555          	0.022
MS.514         	6.543          	0.028
MS.515         	6.527          	0.028
MS.516         	6.515          	0.028
MS.517         	6.503          	0.038
MS.518         	6.49           	0.022
MS.519         	6.477          	0.028
MS.520         	6.462          	0.022
MS.521         	6.45           	0.03
MS.522         	6.438          	0.022
MS.523         	6.425          	0.026
MS.524         	6.412          	0.022
MS.525         	6.4            	0.006
MS.526         	6.387          	0.01
MS.527         	6.375          	0.006
MS.528         	6.36           	0.022
MS.529         	6.347          	0.008
MS.530         	6.335          	0.008
MS.531         	6.322          	0.02
MS.532         	6.31           	0.006
MS.533         	6.297          	0.016
MS.534         	6.285          	0.022
MS.535         	6.273          	0.006
MS.536         	6.26           	0.008
MS.537         	6.247          	0.012
MS.538         	6.235          	0.008
MS.539         	6.222          	0.02
MS.540         	6.21           	0.008
MS.541         	6.197          	0.008
MS.542         	6.185          	0.008
MS.543         	6.172          	0.008
MS.544         	6.16           	0.006
MS.545         	6.148          	0.008
MS.546         	6.135          	0.006
MS.547         	6.125          	0.008
MS.548         	6.112          	0.008
MS.549         	6.1            	0.008
MS.550         	6.088          	0.006
MS.551         	6.075          	0.01
MS.552         	6.062          	0.008

DERIVED EXCITABILITY VARIABLES
Program = QTracP 3/4/2020
Threshold method = 6 (optimised for CAP, using data for present condition only)
SR method = 1 (using actual data values)
6.                 	0.000               	Peak response\(mV)
9.                 	31.2                	Temperature ( C)
17.                	66               	Age (years)
18.                	1                   	Sex (M=1, F=2)

EXTRA VARIABLES

MScPeak(mV) = 9.01
MScS5(mA) = 8.04
MScS50(mA) = 11.38
MScS95(mA) = 14.61
MScNSteps = 1
MScSteps(%) = 2.3
MScStepMax(%) = 2.3
MScD50 = 56
MScSlope = 3.83
MSFPeakAmp(mV) = 9.1
MSFNUnits = 144
MSFMeanUnitAmp(uV) = 63.2
MSFHuntTime(m) = 2.76
MSFError(%) = 4.42
MSFNLarge = 39.35
MSFMedianAmp(%) = 0.572
MSFMedianAmp(mV) = 0.0521
MSFHalfAmpAmp(%) = 0.834
MSFHalfAmpAmp(mV) = 0.0759
MSFLargestAmp(%) = 3.13
MSFLargestAmp(mV) = 0.285
MSFMeanRS(%) = 2
MSFOpts = 10106121
MScDuration(min) = 5.1
MSFTraces = 509
MSFSizeLimit(uV) = 22.7
MSFLimitType = 1
MSFSmallestAmp(uV) = 23.5

EXTRA WAVEFORMS


!MScan Model
!144
	1	6.58	0.26	2
	2	7.06	0.31	2
	3	7.21	0.36	2
	4	7.31	0.46	2
	5	7.49	0.6	2
	6	7.53	0.32	2
	7	7.63	0.38	2
	8	7.88	0.9	2
	9	7.94	0.4	2
	10	7.99	0.52	2
	11	8.08	0.58	2
	12	8.2	0.85	2
	13	8.25	0.54	2
	14	8.28	0.32	2
	15	8.3	0.27	2
	16	8.34	0.54	2
	17	8.36	0.37	2
	18	8.41	0.91	2
	19	8.46	0.56	2
	20	8.52	0.54	2
	21	8.57	0.59	2
	22	8.65	0.51	2
	23	8.75	0.8	2
	24	8.86	0.34	2
	25	8.88	0.85	2
	26	8.93	0.39	2
	27	8.98	0.73	2
	28	9.03	0.62	2
	29	9.08	0.78	2
	30	9.13	0.96	2
	31	9.18	0.6	2
	32	9.3	0.83	2
	33	9.43	0.5	2
	34	9.51	0.35	2
	35	9.55	0.31	2
	36	9.6	0.44	2
	37	9.68	0.56	2
	38	9.7	0.28	2
	39	9.74	0.42	2
	40	9.8	0.56	2
	41	9.84	0.34	2
	42	9.87	0.38	2
	43	9.91	0.38	2
	44	9.96	0.57	2
	45	10.02	0.79	2
	46	10.09	1.53	2
	47	10.26	3.13	2
	48	10.42	2.23	2
	49	10.47	0.91	2
	50	10.5	0.65	2
	51	10.51	0.49	2
	52	10.53	0.38	2
	53	10.54	0.38	2
	54	10.55	1.32	2
	55	10.56	0.38	2
	56	10.57	0.37	2
	57	10.58	0.37	2
	58	10.6	0.34	2
	59	10.61	0.31	2
	60	10.63	0.34	2
	61	10.64	0.34	2
	62	10.66	0.34	2
	63	10.73	0.68	2
	64	10.85	1.52	2
	65	11.03	0.92	2
	66	11.08	0.87	2
	67	11.11	0.62	2
	68	11.13	0.71	2
	69	11.18	0.69	2
	70	11.2	0.73	2
	71	11.24	1.25	2
	72	11.28	1.36	2
	73	11.32	1.17	2
	74	11.36	1.04	2
	75	11.39	1.08	2
	76	11.43	1.16	2
	77	11.49	2	2
	78	11.55	1.45	2
	79	11.64	1.52	2
	80	11.72	0.72	2
	81	11.78	0.89	2
	82	11.83	0.7	2
	83	11.88	0.98	2
	84	11.92	0.84	2
	85	11.97	0.45	2
	86	12.01	0.71	2
	87	12.08	1.27	2
	88	12.14	1.08	2
	89	12.17	0.51	2
	90	12.21	0.26	2
	91	12.24	0.59	2
	92	12.29	1.15	2
	93	12.39	1.67	2
	94	12.67	1.78	2
	95	12.74	0.44	2
	96	12.8	0.45	2
	97	12.84	0.58	2
	98	12.89	0.58	2
	99	12.93	0.49	2
	100	12.97	0.63	2
	101	13.01	0.56	2
	102	13.03	0.34	2
	103	13.05	0.28	2
	104	13.07	0.29	2
	105	13.09	0.34	2
	106	13.11	0.38	2
	107	13.13	0.39	2
	108	13.15	0.42	2
	109	13.18	0.59	2
	110	13.21	0.61	2
	111	13.24	0.64	2
	112	13.27	0.64	2
	113	13.32	0.94	2
	114	13.36	0.66	2
	115	13.42	0.82	2
	116	13.55	2.48	2
	117	13.67	1.04	2
	118	13.75	1.04	2
	119	13.83	0.98	2
	120	13.91	0.92	2
	121	13.98	0.6	2
	122	14.02	0.45	2
	123	14.06	0.83	2
	124	14.12	0.92	2
	125	14.3	1.81	2
	126	14.4	0.73	2
	127	14.49	0.5	2
	128	14.52	0.26	2
	129	14.55	0.28	2
	130	14.59	0.3	2
	131	14.62	0.44	2
	132	14.66	0.31	2
	133	14.7	0.37	2
	134	14.79	0.61	2
	135	14.84	0.34	2
	136	14.89	0.38	2
	137	14.94	0.36	2
	138	14.99	0.26	2
	139	15.04	0.31	2
	140	15.1	0.33	2
	141	15.16	0.32	2
	142	15.23	0.32	2
	143	15.32	0.38	2
	144	16.24	0.99	2

