File:              	C:\Qtrac\Data\Daniel M Sørensen\MScan multicentre study\Data from centres\Edmonton\Processed data\MSCC00928A.QZD
Name:              	CA.EDM.NC.7.2
Protocol:          	MSCAN-R2
Date:              	28/9/20
Start time:        	09:36:30
Age:               	75
Sex:               	M
Temperature:       	32.6
S/R sites:         	TA
NC/disease:        	NC
Operator:          	KJ
Comments:
M-SCAN DATA (13.4-2.1m)
Scanpts: 88, 95, 744, 766
Stim. (mA)     	Amp. (mV)
MS.1           	21             	5.968
MS.2           	21             	5.962
MS.3           	21             	5.977
MS.4           	21             	5.962
MS.5           	21             	5.963
MS.6           	21             	5.974
MS.7           	21             	5.97
MS.8           	21             	5.959
MS.9           	21             	5.973
MS.10          	21             	5.966
MS.11          	21             	5.979
MS.12          	21             	5.963
MS.13          	21             	5.967
MS.14          	21             	5.983
MS.15          	21             	5.967
MS.16          	21             	5.966
MS.17          	21             	5.98
MS.18          	21             	5.974
MS.19          	21             	5.978
MS.20          	21             	5.989
MS.21          	21             	5.97
MS.22          	21             	5.977
MS.23          	21             	5.972
MS.24          	20.915         	5.974
MS.25          	20.875         	5.972
MS.26          	20.833         	5.973
MS.27          	20.79          	5.978
MS.28          	20.75          	5.97
MS.29          	20.708         	5.989
MS.30          	20.667         	5.973
MS.31          	20.625         	5.984
MS.32          	20.585         	5.973
MS.33          	20.542         	5.972
MS.34          	20.502         	5.977
MS.35          	20.46          	5.981
MS.36          	20.42          	5.966
MS.37          	20.38          	5.985
MS.38          	20.337         	5.966
MS.39          	20.297         	5.972
MS.40          	20.257         	5.967
MS.41          	20.217         	5.973
MS.42          	20.177         	5.988
MS.43          	20.135         	5.963
MS.44          	20.095         	5.969
MS.45          	20.055         	5.964
MS.46          	20.015         	5.967
MS.47          	19.975         	5.97
MS.48          	19.935         	5.964
MS.49          	19.895         	5.963
MS.50          	19.855         	5.958
MS.51          	19.817         	5.962
MS.52          	19.778         	5.964
MS.53          	19.737         	5.958
MS.54          	19.698         	5.958
MS.55          	19.657         	5.958
MS.56          	19.62          	5.969
MS.57          	19.58          	5.962
MS.58          	19.54          	5.97
MS.59          	19.502         	5.969
MS.60          	19.462         	5.961
MS.61          	19.425         	5.962
MS.62          	19.385         	5.972
MS.63          	19.347         	5.966
MS.64          	19.307         	5.958
MS.65          	19.27          	5.947
MS.66          	19.23          	5.951
MS.67          	19.192         	5.951
MS.68          	19.155         	5.961
MS.69          	19.115         	5.952
MS.70          	19.077         	5.946
MS.71          	19.04          	5.939
MS.72          	19.002         	5.948
MS.73          	18.962         	5.935
MS.74          	18.925         	5.956
MS.75          	18.887         	5.946
MS.76          	18.85          	5.957
MS.77          	18.812         	5.953
MS.78          	18.775         	5.937
MS.79          	18.737         	5.933
MS.80          	18.7           	5.937
MS.81          	18.663         	5.958
MS.82          	18.625         	5.936
MS.83          	18.587         	5.942
MS.84          	18.55          	5.941
MS.85          	18.515         	5.942
MS.86          	18.477         	5.939
MS.87          	18.44          	5.94
MS.88          	18.403         	5.935
MS.89          	18.368         	5.94
MS.90          	18.33          	5.939
MS.91          	18.292         	5.937
MS.92          	18.257         	5.934
MS.93          	18.22          	5.936
MS.94          	18.182         	5.939
MS.95          	18.147         	5.931
MS.96          	18.11          	5.939
MS.97          	18.075         	5.937
MS.98          	18.038         	5.94
MS.99          	18.003         	5.936
MS.100         	17.967         	5.935
MS.101         	17.93          	5.94
MS.102         	17.895         	5.935
MS.103         	17.86          	5.939
MS.104         	17.823         	5.939
MS.105         	17.788         	5.934
MS.106         	17.753         	5.947
MS.107         	17.717         	5.941
MS.108         	17.682         	5.942
MS.109         	17.645         	5.931
MS.110         	17.61          	5.944
MS.111         	17.575         	5.931
MS.112         	17.54          	5.944
MS.113         	17.505         	5.928
MS.114         	17.47          	5.934
MS.115         	17.435         	5.94
MS.116         	17.4           	5.929
MS.117         	17.365         	5.934
MS.118         	17.333         	5.934
MS.119         	17.297         	5.928
MS.120         	17.262         	5.934
MS.121         	17.227         	5.937
MS.122         	17.192         	5.933
MS.123         	17.16          	5.929
MS.124         	17.125         	5.898
MS.125         	17.09          	5.931
MS.126         	17.057         	5.929
MS.127         	17.022         	5.934
MS.128         	16.987         	5.9
MS.129         	16.955         	5.9
MS.130         	16.92          	5.905
MS.131         	16.887         	5.9
MS.132         	16.852         	5.901
MS.133         	16.82          	5.891
MS.134         	16.785         	5.894
MS.135         	16.753         	5.896
MS.136         	16.717         	5.897
MS.137         	16.685         	5.9
MS.138         	16.653         	5.901
MS.139         	16.618         	5.9
MS.140         	16.585         	5.835
MS.141         	16.552         	5.896
MS.142         	16.52          	5.815
MS.143         	16.485         	5.833
MS.144         	16.452         	5.82
MS.145         	16.42          	5.891
MS.146         	16.387         	5.834
MS.147         	16.355         	5.894
MS.148         	16.323         	5.837
MS.149         	16.29          	5.873
MS.150         	16.257         	5.82
MS.151         	16.225         	5.802
MS.152         	16.192         	5.839
MS.153         	16.16          	5.858
MS.154         	16.128         	5.806
MS.155         	16.095         	5.812
MS.156         	16.062         	5.814
MS.157         	16.03          	5.773
MS.158         	16             	5.776
MS.159         	15.967         	5.769
MS.160         	15.935         	5.796
MS.161         	15.902         	5.771
MS.162         	15.872         	5.785
MS.163         	15.84          	5.751
MS.164         	15.807         	5.798
MS.165         	15.777         	5.795
MS.166         	15.745         	5.796
MS.167         	15.712         	5.802
MS.168         	15.682         	5.782
MS.169         	15.65          	5.764
MS.170         	15.62          	5.77
MS.171         	15.587         	5.778
MS.172         	15.557         	5.754
MS.173         	15.525         	5.765
MS.174         	15.495         	5.747
MS.175         	15.465         	5.768
MS.176         	15.432         	5.75
MS.177         	15.402         	5.764
MS.178         	15.372         	5.751
MS.179         	15.34          	5.754
MS.180         	15.31          	5.756
MS.181         	15.28          	5.77
MS.182         	15.25          	5.76
MS.183         	15.217         	5.752
MS.184         	15.188         	5.754
MS.185         	15.157         	5.746
MS.186         	15.127         	5.739
MS.187         	15.097         	5.734
MS.188         	15.068         	5.751
MS.189         	15.037         	5.747
MS.190         	15.007         	5.752
MS.191         	14.977         	5.757
MS.192         	14.947         	5.741
MS.193         	14.917         	5.73
MS.194         	14.887         	5.737
MS.195         	14.858         	5.74
MS.196         	14.827         	5.695
MS.197         	14.797         	5.691
MS.198         	14.77          	5.703
MS.199         	14.74          	5.693
MS.200         	14.71          	5.708
MS.201         	14.68          	5.697
MS.202         	14.65          	5.685
MS.203         	14.622         	5.697
MS.204         	14.592         	5.627
MS.205         	14.562         	5.69
MS.206         	14.535         	5.682
MS.207         	14.505         	5.614
MS.208         	14.477         	5.623
MS.209         	14.447         	5.687
MS.210         	14.417         	5.612
MS.211         	14.39          	5.525
MS.212         	14.36          	5.573
MS.213         	14.332         	5.575
MS.214         	14.302         	5.463
MS.215         	14.275         	5.436
MS.216         	14.247         	5.45
MS.217         	14.217         	5.563
MS.218         	14.19          	5.559
MS.219         	14.162         	5.468
MS.220         	14.132         	5.42
MS.221         	14.105         	5.554
MS.222         	14.077         	5.559
MS.223         	14.047         	5.402
MS.224         	14.02          	5.424
MS.225         	13.992         	5.396
MS.226         	13.965         	5.386
MS.227         	13.938         	5.406
MS.228         	13.91          	5.419
MS.229         	13.88          	5.365
MS.230         	13.852         	5.392
MS.231         	13.825         	5.354
MS.232         	13.797         	5.363
MS.233         	13.77          	5.365
MS.234         	13.742         	5.374
MS.235         	13.715         	5.356
MS.236         	13.688         	5.341
MS.237         	13.66          	5.283
MS.238         	13.632         	5.264
MS.239         	13.605         	5.33
MS.240         	13.58          	5.309
MS.241         	13.552         	5.312
MS.242         	13.525         	5.231
MS.243         	13.497         	5.26
MS.244         	13.47          	5.248
MS.245         	13.445         	5.234
MS.246         	13.417         	5.288
MS.247         	13.39          	5.289
MS.248         	13.362         	5.228
MS.249         	13.337         	5.219
MS.250         	13.31          	5.228
MS.251         	13.282         	5.223
MS.252         	13.257         	5.233
MS.253         	13.23          	5.203
MS.254         	13.205         	5.219
MS.255         	13.177         	5.177
MS.256         	13.153         	5.177
MS.257         	13.125         	5.17
MS.258         	13.1           	5.195
MS.259         	13.072         	5.204
MS.260         	13.047         	5.187
MS.261         	13.02          	5.175
MS.262         	12.995         	5.159
MS.263         	12.967         	5.183
MS.264         	12.943         	5.201
MS.265         	12.917         	5.171
MS.266         	12.89          	5.135
MS.267         	12.865         	5.134
MS.268         	12.84          	5.114
MS.269         	12.812         	5.154
MS.270         	12.787         	5.159
MS.271         	12.762         	5.103
MS.272         	12.738         	5.017
MS.273         	12.712         	5.04
MS.274         	12.685         	5.065
MS.275         	12.66          	5.057
MS.276         	12.635         	5.009
MS.277         	12.61          	5.066
MS.278         	12.585         	5.022
MS.279         	12.56          	5.063
MS.280         	12.535         	5.023
MS.281         	12.51          	5.044
MS.282         	12.485         	5.029
MS.283         	12.46          	4.93
MS.284         	12.435         	5.055
MS.285         	12.41          	4.919
MS.286         	12.385         	4.979
MS.287         	12.36          	4.984
MS.288         	12.335         	4.929
MS.289         	12.312         	4.94
MS.290         	12.287         	4.941
MS.291         	12.262         	4.927
MS.292         	12.238         	4.883
MS.293         	12.212         	4.85
MS.294         	12.19          	4.883
MS.295         	12.165         	4.85
MS.296         	12.14          	4.874
MS.297         	12.115         	4.849
MS.298         	12.092         	4.905
MS.299         	12.068         	4.806
MS.300         	12.042         	4.882
MS.301         	12.02          	4.882
MS.302         	11.995         	4.856
MS.303         	11.972         	4.83
MS.304         	11.947         	4.813
MS.305         	11.922         	4.791
MS.306         	11.9           	4.799
MS.307         	11.875         	4.763
MS.308         	11.852         	4.8
MS.309         	11.827         	4.818
MS.310         	11.805         	4.778
MS.311         	11.782         	4.762
MS.312         	11.757         	4.795
MS.313         	11.735         	4.813
MS.314         	11.71          	4.711
MS.315         	11.688         	4.722
MS.316         	11.665         	4.672
MS.317         	11.64          	4.725
MS.318         	11.617         	4.755
MS.319         	11.595         	4.779
MS.320         	11.57          	4.673
MS.321         	11.547         	4.687
MS.322         	11.525         	4.473
MS.323         	11.502         	4.702
MS.324         	11.48          	4.755
MS.325         	11.455         	4.438
MS.326         	11.432         	4.268
MS.327         	11.41          	4.684
MS.328         	11.387         	4.656
MS.329         	11.365         	4.437
MS.330         	11.342         	4.442
MS.331         	11.32          	4.456
MS.332         	11.297         	4.395
MS.333         	11.275         	4.307
MS.334         	11.252         	4.115
MS.335         	11.23          	4.132
MS.336         	11.207         	4.355
MS.337         	11.185         	4.277
MS.338         	11.162         	4.073
MS.339         	11.14          	4.075
MS.340         	11.117         	4.045
MS.341         	11.095         	4.165
MS.342         	11.073         	4.163
MS.343         	11.05          	4.065
MS.344         	11.03          	4.061
MS.345         	11.007         	4.02
MS.346         	10.985         	4.064
MS.347         	10.962         	3.959
MS.348         	10.94          	4.008
MS.349         	10.92          	3.959
MS.350         	10.898         	4.087
MS.351         	10.875         	3.998
MS.352         	10.855         	3.993
MS.353         	10.832         	3.879
MS.354         	10.81          	3.843
MS.355         	10.79          	3.846
MS.356         	10.767         	3.856
MS.357         	10.745         	3.861
MS.358         	10.725         	3.927
MS.359         	10.702         	3.801
MS.360         	10.682         	3.779
MS.361         	10.66          	3.871
MS.362         	10.64          	3.748
MS.363         	10.617         	3.706
MS.364         	10.597         	3.76
MS.365         	10.575         	3.69
MS.366         	10.555         	3.715
MS.367         	10.532         	3.706
MS.368         	10.512         	3.685
MS.369         	10.49          	3.693
MS.370         	10.47          	3.646
MS.371         	10.45          	3.651
MS.372         	10.427         	3.667
MS.373         	10.407         	3.617
MS.374         	10.387         	3.574
MS.375         	10.365         	3.585
MS.376         	10.345         	3.539
MS.377         	10.325         	3.495
MS.378         	10.305         	3.489
MS.379         	10.282         	3.594
MS.380         	10.262         	3.536
MS.381         	10.242         	3.442
MS.382         	10.222         	3.54
MS.383         	10.202         	3.468
MS.384         	10.18          	3.412
MS.385         	10.16          	3.446
MS.386         	10.14          	3.379
MS.387         	10.12          	3.359
MS.388         	10.1           	3.289
MS.389         	10.08          	3.312
MS.390         	10.06          	3.324
MS.391         	10.04          	3.22
MS.392         	10.02          	3.153
MS.393         	10             	3.318
MS.394         	9.98           	3.157
MS.395         	9.96           	3.198
MS.396         	9.94           	3.113
MS.397         	9.92           	3.118
MS.398         	9.9            	3.225
MS.399         	9.88           	3.173
MS.400         	9.86           	3.121
MS.401         	9.84           	3.156
MS.402         	9.82           	3.082
MS.403         	9.802          	3.051
MS.404         	9.782          	2.948
MS.405         	9.762          	2.98
MS.406         	9.742          	2.99
MS.407         	9.722          	3.005
MS.408         	9.705          	2.848
MS.409         	9.685          	2.936
MS.410         	9.665          	2.954
MS.411         	9.645          	2.815
MS.412         	9.627          	2.791
MS.413         	9.608          	2.908
MS.414         	9.587          	2.816
MS.415         	9.57           	2.687
MS.416         	9.55           	2.637
MS.417         	9.53           	2.686
MS.418         	9.512          	2.632
MS.419         	9.492          	2.61
MS.420         	9.472          	2.657
MS.421         	9.455          	2.684
MS.422         	9.435          	2.562
MS.423         	9.417          	2.51
MS.424         	9.398          	2.601
MS.425         	9.38           	2.372
MS.426         	9.36           	2.395
MS.427         	9.342          	2.465
MS.428         	9.323          	2.444
MS.429         	9.305          	2.445
MS.430         	9.285          	2.419
MS.431         	9.267          	2.357
MS.432         	9.25           	2.314
MS.433         	9.23           	2.218
MS.434         	9.212          	2.288
MS.435         	9.193          	2.301
MS.436         	9.175          	2.217
MS.437         	9.158          	2.119
MS.438         	9.137          	2.18
MS.439         	9.12           	2.097
MS.440         	9.102          	2.137
MS.441         	9.085          	2.147
MS.442         	9.065          	2.157
MS.443         	9.047          	2.118
MS.444         	9.03           	1.995
MS.445         	9.012          	2.052
MS.446         	8.992          	1.995
MS.447         	8.975          	1.956
MS.448         	8.957          	1.912
MS.449         	8.94           	1.931
MS.450         	8.922          	1.87
MS.451         	8.905          	1.921
MS.452         	8.887          	1.92
MS.453         	8.867          	1.79
MS.454         	8.85           	1.898
MS.455         	8.832          	1.785
MS.456         	8.815          	1.763
MS.457         	8.797          	1.66
MS.458         	8.78           	1.918
MS.459         	8.762          	1.705
MS.460         	8.745          	1.702
MS.461         	8.727          	1.62
MS.462         	8.71           	1.746
MS.463         	8.693          	1.622
MS.464         	8.675          	1.569
MS.465         	8.658          	1.581
MS.466         	8.64           	1.615
MS.467         	8.622          	1.506
MS.468         	8.608          	1.567
MS.469         	8.59           	1.504
MS.470         	8.573          	1.486
MS.471         	8.555          	1.471
MS.472         	8.537          	1.449
MS.473         	8.52           	1.355
MS.474         	8.505          	1.394
MS.475         	8.488          	1.349
MS.476         	8.47           	1.345
MS.477         	8.452          	1.367
MS.478         	8.435          	1.304
MS.479         	8.42           	1.244
MS.480         	8.403          	1.305
MS.481         	8.385          	1.262
MS.482         	8.37           	1.241
MS.483         	8.352          	1.147
MS.484         	8.335          	0.972
MS.485         	8.32           	1.234
MS.486         	8.302          	1.156
MS.487         	8.285          	1.151
MS.488         	8.27           	1.049
MS.489         	8.252          	1.013
MS.490         	8.235          	1.111
MS.491         	8.22           	0.944
MS.492         	8.202          	1.138
MS.493         	8.188          	0.997
MS.494         	8.17           	0.928
MS.495         	8.155          	0.922
MS.496         	8.137          	0.845
MS.497         	8.122          	0.93
MS.498         	8.105          	1.042
MS.499         	8.09           	0.896
MS.500         	8.073          	0.791
MS.501         	8.057          	0.839
MS.502         	8.04           	0.913
MS.503         	8.025          	0.856
MS.504         	8.007          	0.941
MS.505         	7.992          	0.844
MS.506         	7.977          	0.746
MS.507         	7.96           	0.854
MS.508         	7.945          	0.769
MS.509         	7.93           	0.709
MS.510         	7.912          	0.797
MS.511         	7.898          	0.767
MS.512         	7.882          	0.648
MS.513         	7.865          	0.696
MS.514         	7.85           	0.677
MS.515         	7.835          	0.647
MS.516         	7.817          	0.641
MS.517         	7.802          	0.645
MS.518         	7.787          	0.604
MS.519         	7.773          	0.621
MS.520         	7.757          	0.544
MS.521         	7.74           	0.591
MS.522         	7.725          	0.543
MS.523         	7.71           	0.598
MS.524         	7.695          	0.608
MS.525         	7.68           	0.502
MS.526         	7.665          	0.54
MS.527         	7.648          	0.532
MS.528         	7.632          	0.557
MS.529         	7.617          	0.494
MS.530         	7.602          	0.397
MS.531         	7.587          	0.491
MS.532         	7.572          	0.45
MS.533         	7.557          	0.486
MS.534         	7.543          	0.463
MS.535         	7.527          	0.349
MS.536         	7.512          	0.376
MS.537         	7.497          	0.415
MS.538         	7.482          	0.366
MS.539         	7.467          	0.438
MS.540         	7.452          	0.363
MS.541         	7.438          	0.388
MS.542         	7.422          	0.332
MS.543         	7.407          	0.292
MS.544         	7.392          	0.282
MS.545         	7.378          	0.354
MS.546         	7.362          	0.283
MS.547         	7.347          	0.336
MS.548         	7.335          	0.297
MS.549         	7.32           	0.302
MS.550         	7.305          	0.264
MS.551         	7.29           	0.3
MS.552         	7.275          	0.276
MS.553         	7.26           	0.251
MS.554         	7.247          	0.273
MS.555         	7.233          	0.339
MS.556         	7.217          	0.309
MS.557         	7.202          	0.265
MS.558         	7.19           	0.25
MS.559         	7.175          	0.228
MS.560         	7.16           	0.254
MS.561         	7.145          	0.243
MS.562         	7.132          	0.221
MS.563         	7.117          	0.219
MS.564         	7.102          	0.222
MS.565         	7.09           	0.231
MS.566         	7.075          	0.219
MS.567         	7.06           	0.222
MS.568         	7.047          	0.225
MS.569         	7.032          	0.231
MS.570         	7.017          	0.22
MS.571         	7.005          	0.215
MS.572         	6.99           	0.238
MS.573         	6.977          	0.217
MS.574         	6.962          	0.203
MS.575         	6.947          	0.212
MS.576         	6.935          	0.215
MS.577         	6.92           	0.219
MS.578         	6.907          	0.209
MS.579         	6.892          	0.214
MS.580         	6.88           	0.211
MS.581         	6.865          	0.21
MS.582         	6.852          	0.204
MS.583         	6.837          	0.214
MS.584         	6.825          	0.211
MS.585         	6.81           	0.215
MS.586         	6.797          	0.21
MS.587         	6.782          	0.2
MS.588         	6.77           	0.21
MS.589         	6.757          	0.203
MS.590         	6.742          	0.209
MS.591         	6.73           	0.21
MS.592         	6.715          	0.2
MS.593         	6.702          	0.199
MS.594         	6.69           	0.209
MS.595         	6.675          	0.205
MS.596         	6.662          	0.205
MS.597         	6.65           	0.208
MS.598         	6.635          	0.201
MS.599         	6.622          	0.2
MS.600         	6.61           	0.195
MS.601         	6.597          	0.199
MS.602         	6.582          	0.107
MS.603         	6.57           	0.197
MS.604         	6.557          	0.21
MS.605         	6.545          	0.199
MS.606         	6.53           	0.193
MS.607         	6.517          	0.199
MS.608         	6.505          	0.101
MS.609         	6.492          	0.192
MS.610         	6.477          	0.104
MS.611         	6.465          	0.189
MS.612         	6.452          	0.115
MS.613         	6.44           	0.109
MS.614         	6.427          	0.197
MS.615         	6.415          	0.192
MS.616         	6.402          	0.106
MS.617         	6.387          	0.103
MS.618         	6.375          	0.095
MS.619         	6.362          	0.101
MS.620         	6.35           	0.1
MS.621         	6.338          	0.095
MS.622         	6.325          	0.1
MS.623         	6.312          	0.189
MS.624         	6.3            	0.098
MS.625         	6.287          	0.107
MS.626         	6.275          	0.07
MS.627         	6.262          	0.206
MS.628         	6.25           	0.066
MS.629         	6.237          	0.088
MS.630         	6.225          	0.083
MS.631         	6.213          	0.096
MS.632         	6.2            	0.066
MS.633         	6.188          	0.056
MS.634         	6.175          	0.15
MS.635         	6.162          	0.05
MS.636         	6.15           	0.084
MS.637         	6.137          	0.084
MS.638         	6.125          	0.057
MS.639         	6.112          	0.055
MS.640         	6.102          	0.043
MS.641         	6.09           	0.077
MS.642         	6.077          	0.045
MS.643         	6.065          	0.044
MS.644         	6.052          	0.085
MS.645         	6.04           	0.054
MS.646         	6.027          	0.073
MS.647         	6.017          	0.05
MS.648         	6.005          	0.042
MS.649         	5.992          	0.05
MS.650         	5.98           	0.034
MS.651         	5.967          	0.04
MS.652         	5.957          	0.039
MS.653         	5.945          	0.031
MS.654         	5.932          	0.032
MS.655         	5.92           	0.038
MS.656         	5.91           	0.029
MS.657         	5.898          	0.034
MS.658         	5.885          	0.031
MS.659         	5.875          	0.027
MS.660         	5.862          	0.033
MS.661         	5.85           	0.029
MS.662         	5.84           	0.049
MS.663         	5.827          	0.026
MS.664         	5.815          	0.028
MS.665         	5.805          	0.05
MS.666         	5.793          	0.065
MS.667         	5.78           	0.037
MS.668         	5.77           	0.028
MS.669         	5.757          	0.052
MS.670         	5.745          	0.032
MS.671         	5.735          	0.022
MS.672         	5.722          	0.011
MS.673         	5.713          	0.04
MS.674         	5.7            	0.061
MS.675         	5.69           	0.049
MS.676         	5.677          	0.024
MS.677         	5.665          	0.052
MS.678         	5.655          	0.022
MS.679         	5.642          	0.021
MS.680         	5.632          	0.022
MS.681         	5.62           	0.023
MS.682         	5.61           	0.029
MS.683         	5.597          	0.029
MS.684         	5.588          	0.024
MS.685         	5.577          	0.024
MS.686         	5.565          	0.026
MS.687         	5.555          	0.023
MS.688         	5.543          	0.029
MS.689         	5.532          	0.023
MS.690         	5.52           	0.021
MS.691         	5.51           	0.029
MS.692         	5.497          	0.049
MS.693         	5.487          	0.021
MS.694         	5.477          	0.027
MS.695         	5.465          	0.021
MS.696         	5.455          	0.012
MS.697         	5.445          	0.007
MS.698         	5.432          	0.023
MS.699         	5.422          	0.023
MS.700         	5.412          	0.021
MS.701         	5.4            	0.018
MS.702         	5.39           	0.026
MS.703         	5.38           	0.023
MS.704         	5.367          	0.021
MS.705         	5.358          	0.031
MS.706         	5.347          	0.009
MS.707         	5.335          	0.009
MS.708         	5.325          	0.016
MS.709         	5.315          	0.023
MS.710         	5.305          	0.026
MS.711         	5.293          	0.02
MS.712         	5.282          	0.021
MS.713         	5.273          	0.015
MS.714         	5.262          	0.011
MS.715         	5.253          	0.007
MS.716         	5.24           	0.005
MS.717         	5.23           	0.016
MS.718         	5.22           	0.011
MS.719         	5.21           	0.005
MS.720         	5.2            	0.005
MS.721         	5.19           	0.013
MS.722         	5.177          	0.012
MS.723         	5.168          	0.013
MS.724         	5.157          	0.01
MS.725         	5.148          	0.006
MS.726         	5.137          	0.007
MS.727         	5.128          	0.004
MS.728         	5.117          	0.009
MS.729         	5.108          	0.002
MS.730         	5.097          	0.004
MS.731         	5.085          	0.001
MS.732         	5.075          	0.005
MS.733         	5.065          	0.007
MS.734         	5.055          	0.006
MS.735         	5.045          	0.001
MS.736         	5.035          	0.007
MS.737         	5.025          	0.005
MS.738         	5.015          	0.002
MS.739         	5.005          	0.001
MS.740         	4.995          	0.001
MS.741         	4.985          	0.002
MS.742         	4.975          	0.002
MS.743         	4.965          	0.001
MS.744         	4.955          	0.002
MS.745         	4.945          	0.004
MS.746         	4.935          	0.001
MS.747         	4.925          	0.004
MS.748         	4.915          	0.002
MS.749         	4.907          	-0.001
MS.750         	4.898          	0.001
MS.751         	4.887          	0.000
MS.752         	4.878          	0.001
MS.753         	4.867          	0.002
MS.754         	4.858          	0.002
MS.755         	4.847          	0.001
MS.756         	4.838          	0.001
MS.757         	4.827          	0.001
MS.758         	4.82           	0.002
MS.759         	4.81           	0.000
MS.760         	4.8            	0.001
MS.761         	4.79           	0.004
MS.762         	4.78           	0.001
MS.763         	4.77           	0.002
MS.764         	4.762          	0.001
MS.765         	4.753          	0.002
MS.766         	4.742          	0.002
MS.767         	4.733          	0.001
MS.768         	4.722          	0.001
MS.769         	4.715          	0.000
MS.770         	4.705          	0.000
MS.771         	4.695          	0.002
MS.772         	4.685          	0.000
MS.773         	4.677          	0.001
MS.774         	4.668          	0.012
MS.775         	4.657          	0.001
MS.776         	4.648          	0.001
MS.777         	4.64           	0.002
MS.778         	4.63           	0.000
MS.779         	4.62           	0.000
MS.780         	4.612          	0.004
MS.781         	4.602          	0.015
MS.782         	4.592          	0.000
MS.783         	4.585          	-0.001
MS.784         	4.575          	0.000
MS.785         	4.565          	0.000
MS.786         	4.557          	0.001
MS.787         	4.548          	0.005
MS.788         	4.537          	0.001
MS.789         	4.53           	0.002
MS.790         	4.52           	0.005
MS.791         	4.51           	0.013
MS.792         	4.503          	0.018
MS.793         	4.492          	0.007
MS.794         	4.485          	-0.001
MS.795         	4.475          	0.001
MS.796         	4.465          	0.01
MS.797         	4.457          	0.009
MS.798         	4.447          	0.002
MS.799         	4.44           	0.005
MS.800         	4.43           	0.001
MS.801         	4.423          	0.007
MS.802         	4.412          	0.001
MS.803         	4.405          	0.009
MS.804         	4.395          	0.001
MS.805         	4.387          	0.000
MS.806         	4.378          	0.007
MS.807         	4.37           	0.001
MS.808         	4.36           	0.006
MS.809         	4.352          	0.009
MS.810         	4.342          	0.000
MS.811         	4.335          	-0.001
MS.812         	4.325          	0.007
MS.813         	4.318          	0.011
MS.814         	4.307          	0.006
MS.815         	4.3            	0.004
MS.816         	4.29           	0.000
MS.817         	4.282          	0.007
MS.818         	4.275          	0.004
MS.819         	4.265          	-0.001
MS.820         	4.257          	0.016
MS.821         	4.247          	0.001
MS.822         	4.24           	0.005
MS.823         	4.233          	0.001
MS.824         	4.222          	0.005
MS.825         	4.215          	0.005
MS.826         	4.205          	0.004
MS.827         	4.197          	0.007
MS.828         	4.19           	0.005
MS.829         	4.18           	0.002
MS.830         	4.173          	0.002
MS.831         	4.165          	0.001
MS.832         	4.155          	0.004
MS.833         	4.148          	0.002
MS.834         	4.14           	0.001
MS.835         	4.13           	0.002
MS.836         	4.122          	0.001
MS.837         	4.115          	0.004
MS.838         	4.108          	0.002
MS.839         	4.097          	0.002
MS.840         	4.09           	0.001
MS.841         	4.082          	0.002
MS.842         	4.072          	0.001
MS.843         	4.065          	0.002
MS.844         	4.057          	0.006
MS.845         	4.05           	0.001
MS.846         	4.04           	0.001
MS.847         	4.032          	0.002
MS.848         	4.025          	0.001
MS.849         	4.017          	0.001
MS.850         	4.01           	0.002
MS.851         	4              	0.001
MS.852         	3.992          	0.002
MS.853         	3.985          	0.002
MS.854         	3.977          	0.002
MS.855         	3.97           	0.002
MS.856         	3.96           	0.001
MS.857         	3.952          	0.001
MS.858         	3.945          	0.000
MS.859         	3.938          	0.002
MS.860         	3.93           	0.002
MS.861         	3.922          	0.002
MS.862         	3.915          	-0.001
MS.863         	3.905          	0.002
MS.864         	3.897          	-0.001
MS.865         	3.89           	0.004
MS.866         	3.882          	0.002
MS.867         	3.875          	0.001
MS.868         	3.867          	0.002
MS.869         	3.86           	0.001
MS.870         	3.852          	0.000
MS.871         	3.845          	0.002
MS.872         	3.837          	0.002
MS.873         	3.827          	0.002
MS.874         	3.82           	0.000
MS.875         	3.812          	0.001
MS.876         	3.805          	0.005
MS.877         	3.797          	0.001
MS.878         	3.79           	0.001
MS.879         	3.783          	0.000
MS.880         	3.775          	0.001
MS.881         	3.767          	0.000
MS.882         	3.76           	0.002
MS.883         	3.752          	0.002
MS.884         	3.745          	0.001
MS.885         	3.737          	0.001
MS.886         	3.73           	0.002
MS.887         	3.722          	0.002
MS.888         	3.715          	0.000
MS.889         	3.707          	0.001
MS.890         	3.7            	0.004
DERIVED EXCITABILITY VARIABLES
Program = QTracP 3/4/2020
Threshold method = 6 (optimised for CAP, using data for present condition only)
SR method = 1 (using actual data values)
6.                 	0.000               	Peak response\(mV)
9.                 	32.6                	Temperature ( C)
17.                	75                  	Age (years)
18.                	1                   	Sex (M=1, F=2)

EXTRA VARIABLES

MScPeak(mV) = 5.97
MScS5(mA) = 7.32
MScS50(mA) = 9.75
MScS95(mA) = 14.52
MScNSteps = 1
MScSteps(%) = 3.1
MScStepMax(%) = 3.1
MScD50 = 67
MScSlope = 3.39
MSFPeakAmp(mV) = 5.93
MSFNUnits = 184
MSFMeanUnitAmp(uV) = 32.3
MSFHuntTime(m) = 4.47
MSFError(%) = 1.07
MSFNLarge = 58.48
MSFMedianAmp(%) = 0.452
MSFMedianAmp(mV) = 0.0268
MSFHalfAmpAmp(%) = 0.554
MSFHalfAmpAmp(mV) = 0.0329
MSFLargestAmp(%) = 3.58
MSFLargestAmp(mV) = 0.212
MSFMeanRS(%) = 1.99
MSFOpts = 10106121
MScDuration(min) = 11.3
MSFTraces = 679
MSFSizeLimit(uV) = 14.8
MSFLimitType = 1
MSFSmallestAmp(uV) = 15.2

EXTRA WAVEFORMS


!MScan Model
!184
	1	5.37	0.53	2
	2	6.18	0.92	2
	3	6.45	1.09	2
	4	6.49	1.03	2
	5	7.12	0.59	2
	6	7.2	0.33	2
	7	7.35	0.98	2
	8	7.4	0.27	2
	9	7.44	0.46	2
	10	7.48	0.39	2
	11	7.52	0.51	2
	12	7.55	0.57	2
	13	7.59	0.49	2
	14	7.63	0.31	2
	15	7.66	0.44	2
	16	7.69	0.42	2
	17	7.72	0.39	2
	18	7.74	0.31	2
	19	7.77	0.31	2
	20	7.79	0.33	2
	21	7.81	0.31	2
	22	7.83	0.28	2
	23	7.85	0.31	2
	24	7.87	0.37	2
	25	7.89	0.48	2
	26	7.93	0.57	2
	27	7.98	0.91	2
	28	8.08	1.23	2
	29	8.16	1.25	2
	30	8.22	1	2
	31	8.26	0.8	2
	32	8.3	0.81	2
	33	8.33	0.62	2
	34	8.36	0.62	2
	35	8.38	0.56	2
	36	8.4	0.48	2
	37	8.42	0.52	2
	38	8.45	0.51	2
	39	8.47	0.49	2
	40	8.48	0.41	2
	41	8.5	0.41	2
	42	8.52	0.37	2
	43	8.54	0.36	2
	44	8.55	0.32	2
	45	8.57	0.35	2
	46	8.58	0.38	2
	47	8.6	0.41	2
	48	8.62	0.42	2
	49	8.65	0.69	2
	50	8.68	0.59	2
	51	8.71	0.62	2
	52	8.75	0.75	2
	53	8.78	0.76	2
	54	8.81	0.63	2
	55	8.84	0.58	2
	56	8.87	0.61	2
	57	8.89	0.44	2
	58	8.91	0.29	2
	59	8.92	0.29	2
	60	8.94	0.31	2
	61	8.95	0.3	2
	62	8.96	0.3	2
	63	8.98	0.31	2
	64	9	0.36	2
	65	9.01	0.34	2
	66	9.03	0.28	2
	67	9.05	0.33	2
	68	9.06	0.35	2
	69	9.08	0.3	2
	70	9.09	0.31	2
	71	9.11	0.38	2
	72	9.12	0.41	2
	73	9.14	0.35	2
	74	9.15	0.33	2
	75	9.17	0.42	2
	76	9.19	0.43	2
	77	9.21	0.3	2
	78	9.24	0.44	2
	79	9.26	0.45	2
	80	9.28	0.44	2
	81	9.3	0.51	2
	82	9.32	0.5	2
	83	9.34	0.44	2
	84	9.36	0.5	2
	85	9.38	0.56	2
	86	9.41	0.59	2
	87	9.43	0.55	2
	88	9.46	0.52	2
	89	9.48	0.44	2
	90	9.5	0.42	2
	91	9.53	0.55	2
	92	9.55	0.55	2
	93	9.57	0.57	2
	94	9.59	0.57	2
	95	9.62	0.49	2
	96	9.64	0.45	2
	97	9.66	0.43	2
	98	9.68	0.47	2
	99	9.7	0.49	2
	100	9.72	0.48	2
	101	9.74	0.63	2
	102	9.77	0.54	2
	103	9.8	0.44	2
	104	9.83	0.59	2
	105	9.87	0.67	2
	106	9.92	0.59	2
	107	9.95	0.56	2
	108	9.99	0.77	2
	109	10.02	0.56	2
	110	10.04	0.33	2
	111	10.06	0.29	2
	112	10.09	0.29	2
	113	10.11	0.42	2
	114	10.13	0.42	2
	115	10.15	0.41	2
	116	10.17	0.34	2
	117	10.19	0.29	2
	118	10.21	0.32	2
	119	10.24	0.38	2
	120	10.26	0.48	2
	121	10.29	0.51	2
	122	10.32	0.37	2
	123	10.35	0.34	2
	124	10.37	0.3	2
	125	10.4	0.26	2
	126	10.42	0.3	2
	127	10.45	0.28	2
	128	10.47	0.3	2
	129	10.5	0.37	2
	130	10.52	0.32	2
	131	10.55	0.4	2
	132	10.59	0.44	2
	133	10.63	0.41	2
	134	10.67	0.42	2
	135	10.7	0.56	2
	136	10.74	0.55	2
	137	10.8	0.77	2
	138	10.85	0.66	2
	139	10.94	0.89	2
	140	11.07	1.18	2
	141	11.12	0.58	2
	142	11.23	1.55	2
	143	11.24	2.41	1.6
	144	11.3	1.03	2
	145	11.3	0.26	2
	146	11.34	3.58	2
	147	11.39	1.96	2
	148	11.81	0.38	2
	149	11.88	0.4	2
	150	12	0.54	2
	151	12.08	0.45	2
	152	12.19	0.6	2
	153	12.27	0.42	2
	154	12.32	0.29	2
	155	12.38	0.48	2
	156	12.49	0.65	2
	157	12.61	0.7	2
	158	12.67	0.4	2
	159	12.74	0.42	2
	160	12.84	0.45	2
	161	12.93	0.63	2
	162	13.06	0.45	2
	163	13.24	0.55	2
	164	13.33	0.29	2
	165	13.41	0.33	2
	166	13.48	0.34	2
	167	13.55	0.31	2
	168	13.65	0.47	2
	169	13.73	0.43	2
	170	13.82	0.39	2
	171	13.94	0.84	2
	172	14.14	0.99	2
	173	14.28	1.03	2
	174	14.37	0.87	2
	175	14.38	0.87	2
	176	14.53	0.68	2
	177	14.78	0.53	2
	178	15.01	0.49	2
	179	15.4	0.36	2
	180	15.91	0.55	2
	181	16.11	0.34	2
	182	16.44	0.74	2
	183	16.74	0.52	2
	184	17.08	0.54	2

