File:              	C:\Qtrac\Data\Daniel M Sørensen\MScan multicentre study\Data from centres\Edmonton\Processed data\MSCC00928C.QZD
Name:              	CA.EDM.NC.7.2
Protocol:          	MSCAN-R2
Date:              	28/9/20
Start time:        	10:10:01
Age:               	75
Sex:               	M
Temperature:       	32.2
S/R sites:         	ADM
NC/disease:        	NC
Operator:          	KJ
Comments:
M-SCAN DATA (8.6-1.2m)
Scanpts: 103, 112, 552, 574
Stim. (mA)     	Amp. (mV)
MS.1           	41.5           	13.423
MS.2           	41.5           	13.434
MS.3           	41.5           	13.442
MS.4           	41.5           	13.485
MS.5           	41.5           	13.477
MS.6           	41.5           	13.475
MS.7           	41.5           	13.525
MS.8           	41.5           	13.518
MS.9           	41.5           	13.525
MS.10          	41.5           	13.528
MS.11          	41.5           	13.525
MS.12          	41.5           	13.475
MS.13          	41.5           	13.561
MS.14          	41.5           	13.579
MS.15          	41.5           	13.563
MS.16          	41.5           	13.555
MS.17          	41.5           	13.536
MS.18          	41.5           	13.545
MS.19          	41.5           	13.557
MS.20          	41.5           	13.61
MS.21          	41.5           	13.625
MS.22          	41.5           	13.578
MS.23          	41.5           	13.574
MS.24          	41.335         	13.655
MS.25          	41.252         	13.643
MS.26          	41.17          	13.595
MS.27          	41.087         	13.632
MS.28          	41.005         	13.634
MS.29          	40.923         	13.641
MS.30          	40.84          	13.606
MS.31          	40.76          	13.627
MS.32          	40.677         	13.646
MS.33          	40.597         	13.629
MS.34          	40.515         	13.646
MS.35          	40.435         	13.639
MS.36          	40.355         	13.643
MS.37          	40.272         	13.666
MS.38          	40.192         	13.687
MS.39          	40.112         	13.64
MS.40          	40.032         	13.691
MS.41          	39.952         	13.662
MS.42          	39.872         	13.669
MS.43          	39.792         	13.669
MS.44          	39.712         	13.656
MS.45          	39.635         	13.677
MS.46          	39.555         	13.702
MS.47          	39.475         	13.674
MS.48          	39.397         	13.741
MS.49          	39.317         	13.694
MS.50          	39.24          	13.723
MS.51          	39.162         	13.713
MS.52          	39.083         	13.738
MS.53          	39.005         	13.635
MS.54          	38.927         	13.69
MS.55          	38.85          	13.656
MS.56          	38.772         	13.662
MS.57          	38.695         	13.66
MS.58          	38.618         	13.666
MS.59          	38.54          	13.698
MS.60          	38.462         	13.674
MS.61          	38.385         	13.678
MS.62          	38.31          	13.748
MS.63          	38.232         	13.766
MS.64          	38.155         	13.656
MS.65          	38.08          	13.599
MS.66          	38.005         	13.632
MS.67          	37.927         	13.632
MS.68          	37.853         	13.646
MS.69          	37.778         	13.61
MS.70          	37.7           	13.612
MS.71          	37.625         	13.622
MS.72          	37.55          	13.628
MS.73          	37.475         	13.606
MS.74          	37.4           	13.691
MS.75          	37.325         	13.651
MS.76          	37.252         	13.646
MS.77          	37.177         	13.65
MS.78          	37.103         	13.646
MS.79          	37.028         	13.629
MS.80          	36.955         	13.669
MS.81          	36.88          	13.687
MS.82          	36.807         	13.654
MS.83          	36.732         	13.663
MS.84          	36.66          	13.765
MS.85          	36.587         	13.7
MS.86          	36.515         	13.696
MS.87          	36.44          	13.574
MS.88          	36.368         	13.538
MS.89          	36.295         	13.8
MS.90          	36.222         	13.732
MS.91          	36.15          	13.737
MS.92          	36.077         	13.706
MS.93          	36.005         	13.535
MS.94          	35.935         	13.672
MS.95          	35.862         	13.732
MS.96          	35.79          	13.706
MS.97          	35.72          	13.508
MS.98          	35.647         	13.547
MS.99          	35.577         	13.551
MS.100         	35.505         	13.584
MS.101         	35.435         	13.534
MS.102         	35.365         	13.586
MS.103         	35.292         	13.544
MS.104         	35.222         	13.563
MS.105         	35.153         	13.597
MS.106         	35.083         	13.58
MS.107         	35.013         	13.514
MS.108         	34.943         	13.552
MS.109         	34.872         	13.549
MS.110         	34.802         	13.541
MS.111         	34.732         	13.551
MS.112         	34.662         	13.577
MS.113         	34.595         	13.556
MS.114         	34.525         	13.601
MS.115         	34.455         	13.608
MS.116         	34.388         	13.591
MS.117         	34.318         	13.604
MS.118         	34.25          	13.583
MS.119         	34.182         	13.612
MS.120         	34.112         	13.654
MS.121         	34.045         	13.59
MS.122         	33.978         	13.622
MS.123         	33.91          	13.628
MS.124         	33.842         	13.605
MS.125         	33.775         	13.667
MS.126         	33.708         	13.615
MS.127         	33.64          	13.624
MS.128         	33.572         	13.558
MS.129         	33.505         	13.617
MS.130         	33.438         	13.351
MS.131         	33.37          	13.357
MS.132         	33.305         	13.566
MS.133         	33.237         	13.649
MS.134         	33.173         	13.639
MS.135         	33.105         	13.535
MS.136         	33.04          	13.187
MS.137         	32.972         	13.3
MS.138         	32.907         	13.248
MS.139         	32.842         	13.347
MS.140         	32.775         	13.265
MS.141         	32.71          	13.18
MS.142         	32.645         	13.265
MS.143         	32.58          	13.12
MS.144         	32.515         	13.22
MS.145         	32.45          	12.518
MS.146         	32.385         	12.789
MS.147         	32.32          	13.162
MS.148         	32.255         	13.048
MS.149         	32.19          	13.196
MS.150         	32.127         	12.804
MS.151         	32.062         	12.729
MS.152         	31.997         	12.684
MS.153         	31.935         	12.639
MS.154         	31.87          	12.618
MS.155         	31.807         	12.941
MS.156         	31.742         	12.56
MS.157         	31.68          	12.871
MS.158         	31.617         	13
MS.159         	31.552         	12.994
MS.160         	31.49          	12.521
MS.161         	31.427         	12.609
MS.162         	31.365         	12.966
MS.163         	31.302         	12.767
MS.164         	31.24          	12.493
MS.165         	31.177         	12.355
MS.166         	31.115         	12.382
MS.167         	31.052         	11.858
MS.168         	30.99          	12.14
MS.169         	30.93          	11.632
MS.170         	30.867         	11.768
MS.171         	30.805         	12.098
MS.172         	30.745         	11.498
MS.173         	30.682         	11.509
MS.174         	30.62          	11.646
MS.175         	30.56          	12.081
MS.176         	30.5           	11.486
MS.177         	30.438         	11.467
MS.178         	30.377         	12.009
MS.179         	30.317         	11.439
MS.180         	30.255         	11.469
MS.181         	30.195         	11.448
MS.182         	30.135         	11.466
MS.183         	30.075         	11.442
MS.184         	30.015         	11.309
MS.185         	29.955         	11.31
MS.186         	29.895         	11.449
MS.187         	29.835         	11.271
MS.188         	29.775         	11.306
MS.189         	29.715         	11.438
MS.190         	29.657         	11.444
MS.191         	29.597         	11.324
MS.192         	29.537         	11.456
MS.193         	29.48          	11.019
MS.194         	29.42          	11.289
MS.195         	29.362         	11.436
MS.196         	29.302         	11.296
MS.197         	29.245         	10.436
MS.198         	29.185         	11.272
MS.199         	29.127         	10.768
MS.200         	29.07          	10.83
MS.201         	29.012         	11.289
MS.202         	28.952         	10.43
MS.203         	28.895         	10.652
MS.204         	28.837         	10.748
MS.205         	28.78          	10.466
MS.206         	28.722         	9.762
MS.207         	28.665         	10.228
MS.208         	28.608         	10.013
MS.209         	28.55          	10.448
MS.210         	28.495         	9.985
MS.211         	28.438         	10.165
MS.212         	28.38          	9.235
MS.213         	28.323         	9.989
MS.214         	28.267         	9.227
MS.215         	28.21          	9.465
MS.216         	28.155         	9.449
MS.217         	28.097         	9.696
MS.218         	28.042         	9.486
MS.219         	27.985         	9.208
MS.220         	27.93          	9.189
MS.221         	27.875         	9.241
MS.222         	27.817         	9.226
MS.223         	27.762         	8.712
MS.224         	27.707         	9.238
MS.225         	27.653         	9.198
MS.226         	27.597         	9.462
MS.227         	27.542         	9.281
MS.228         	27.487         	9.232
MS.229         	27.432         	9.226
MS.230         	27.377         	9.113
MS.231         	27.323         	8.762
MS.232         	27.267         	8.705
MS.233         	27.212         	9.236
MS.234         	27.157         	8.889
MS.235         	27.105         	8.767
MS.236         	27.05          	8.556
MS.237         	26.995         	8.071
MS.238         	26.942         	8.491
MS.239         	26.887         	9.053
MS.240         	26.835         	8.208
MS.241         	26.78          	8.536
MS.242         	26.727         	8.057
MS.243         	26.675         	7.933
MS.244         	26.62          	8.124
MS.245         	26.567         	7.739
MS.246         	26.515         	7.888
MS.247         	26.462         	7.732
MS.248         	26.407         	7.832
MS.249         	26.355         	8.003
MS.250         	26.302         	7.904
MS.251         	26.25          	7.732
MS.252         	26.198         	7.794
MS.253         	26.145         	7.76
MS.254         	26.092         	7.661
MS.255         	26.042         	7.784
MS.256         	25.99          	7.462
MS.257         	25.938         	7.468
MS.258         	25.885         	7.185
MS.259         	25.835         	7.014
MS.260         	25.782         	7.214
MS.261         	25.73          	6.879
MS.262         	25.68          	6.215
MS.263         	25.627         	6.2
MS.264         	25.577         	6.066
MS.265         	25.525         	6.434
MS.266         	25.475         	5.956
MS.267         	25.425         	6.616
MS.268         	25.372         	6.604
MS.269         	25.323         	4.954
MS.270         	25.272         	6.537
MS.271         	25.222         	4.963
MS.272         	25.17          	4.878
MS.273         	25.12          	4.944
MS.274         	25.07          	4.874
MS.275         	25.02          	4.862
MS.276         	24.97          	5.022
MS.277         	24.92          	4.714
MS.278         	24.87          	4.83
MS.279         	24.82          	4.801
MS.280         	24.772         	4.814
MS.281         	24.722         	4.803
MS.282         	24.672         	4.762
MS.283         	24.622         	4.766
MS.284         	24.575         	4.762
MS.285         	24.525         	4.76
MS.286         	24.475         	4.661
MS.287         	24.427         	4.657
MS.288         	24.377         	4.729
MS.289         	24.33          	4.628
MS.290         	24.28          	4.6
MS.291         	24.233         	4.579
MS.292         	24.185         	4.308
MS.293         	24.135         	4.639
MS.294         	24.087         	4.557
MS.295         	24.04          	4.614
MS.296         	23.993         	4.612
MS.297         	23.942         	4.176
MS.298         	23.895         	4.279
MS.299         	23.847         	4.493
MS.300         	23.8           	4.086
MS.301         	23.752         	4.084
MS.302         	23.705         	4.138
MS.303         	23.657         	4.171
MS.304         	23.61          	3.97
MS.305         	23.562         	3.988
MS.306         	23.515         	3.715
MS.307         	23.47          	4.082
MS.308         	23.422         	4.115
MS.309         	23.375         	3.389
MS.310         	23.33          	3.943
MS.311         	23.282         	3.683
MS.312         	23.235         	3.586
MS.313         	23.19          	4.062
MS.314         	23.142         	3.975
MS.315         	23.097         	3.949
MS.316         	23.05          	4.004
MS.317         	23.005         	3.381
MS.318         	22.957         	3.865
MS.319         	22.913         	3.521
MS.320         	22.868         	3.39
MS.321         	22.82          	3.199
MS.322         	22.775         	3.445
MS.323         	22.73          	3.458
MS.324         	22.685         	2.899
MS.325         	22.64          	3.395
MS.326         	22.595         	3.527
MS.327         	22.55          	2.811
MS.328         	22.505         	3.248
MS.329         	22.46          	3.311
MS.330         	22.415         	3.223
MS.331         	22.37          	2.59
MS.332         	22.325         	3.241
MS.333         	22.28          	2.808
MS.334         	22.235         	2.524
MS.335         	22.19          	2.974
MS.336         	22.147         	2.458
MS.337         	22.102         	2.566
MS.338         	22.057         	2.999
MS.339         	22.015         	2.321
MS.340         	21.97          	2.572
MS.341         	21.927         	2.251
MS.342         	21.882         	2.491
MS.343         	21.84          	2.03
MS.344         	21.795         	1.862
MS.345         	21.752         	1.901
MS.346         	21.708         	2.012
MS.347         	21.665         	2.061
MS.348         	21.622         	2.153
MS.349         	21.577         	1.799
MS.350         	21.535         	1.859
MS.351         	21.493         	1.793
MS.352         	21.45          	1.68
MS.353         	21.407         	1.482
MS.354         	21.362         	1.697
MS.355         	21.32          	1.838
MS.356         	21.278         	1.63
MS.357         	21.235         	1.476
MS.358         	21.192         	1.533
MS.359         	21.15          	1.505
MS.360         	21.11          	1.426
MS.361         	21.067         	1.669
MS.362         	21.025         	1.469
MS.363         	20.983         	1.501
MS.364         	20.94          	1.47
MS.365         	20.9           	1.483
MS.366         	20.858         	1.422
MS.367         	20.815         	1.439
MS.368         	20.772         	1.477
MS.369         	20.733         	1.24
MS.370         	20.69          	1.478
MS.371         	20.65          	1.364
MS.372         	20.608         	1.213
MS.373         	20.567         	1.477
MS.374         	20.525         	1.313
MS.375         	20.485         	1.257
MS.376         	20.445         	1.138
MS.377         	20.403         	1.2
MS.378         	20.362         	1.046
MS.379         	20.323         	0.997
MS.380         	20.28          	1.162
MS.381         	20.24          	0.97
MS.382         	20.2           	1.183
MS.383         	20.16          	1.016
MS.384         	20.12          	0.975
MS.385         	20.08          	1.163
MS.386         	20.04          	1.117
MS.387         	20             	0.947
MS.388         	19.96          	0.992
MS.389         	19.92          	0.983
MS.390         	19.88          	0.907
MS.391         	19.84          	0.981
MS.392         	19.8           	0.968
MS.393         	19.76          	0.973
MS.394         	19.72          	0.963
MS.395         	19.682         	0.896
MS.396         	19.642         	0.923
MS.397         	19.602         	0.963
MS.398         	19.565         	0.903
MS.399         	19.525         	0.896
MS.400         	19.485         	0.864
MS.401         	19.448         	0.865
MS.402         	19.407         	0.879
MS.403         	19.37          	0.82
MS.404         	19.33          	0.796
MS.405         	19.292         	0.85
MS.406         	19.252         	0.83
MS.407         	19.215         	0.819
MS.408         	19.177         	0.847
MS.409         	19.137         	0.817
MS.410         	19.1           	0.833
MS.411         	19.062         	0.881
MS.412         	19.025         	0.823
MS.413         	18.985         	0.792
MS.414         	18.948         	0.75
MS.415         	18.91          	0.719
MS.416         	18.872         	0.594
MS.417         	18.835         	0.631
MS.418         	18.797         	0.637
MS.419         	18.76          	0.643
MS.420         	18.722         	0.387
MS.421         	18.685         	0.641
MS.422         	18.647         	0.394
MS.423         	18.61          	0.392
MS.424         	18.573         	0.391
MS.425         	18.535         	0.385
MS.426         	18.497         	0.387
MS.427         	18.462         	0.385
MS.428         	18.425         	0.389
MS.429         	18.387         	0.385
MS.430         	18.35          	0.394
MS.431         	18.315         	0.371
MS.432         	18.278         	0.38
MS.433         	18.243         	0.375
MS.434         	18.205         	0.383
MS.435         	18.167         	0.378
MS.436         	18.132         	0.391
MS.437         	18.095         	0.386
MS.438         	18.06          	0.376
MS.439         	18.022         	0.396
MS.440         	17.987         	0.385
MS.441         	17.952         	0.393
MS.442         	17.915         	0.382
MS.443         	17.88          	0.35
MS.444         	17.845         	0.392
MS.445         	17.807         	0.382
MS.446         	17.772         	0.35
MS.447         	17.737         	0.352
MS.448         	17.702         	0.355
MS.449         	17.667         	0.343
MS.450         	17.632         	0.347
MS.451         	17.597         	0.337
MS.452         	17.56          	0.35
MS.453         	17.525         	0.347
MS.454         	17.49          	0.342
MS.455         	17.455         	0.344
MS.456         	17.42          	0.345
MS.457         	17.387         	0.345
MS.458         	17.352         	0.344
MS.459         	17.317         	0.331
MS.460         	17.282         	0.345
MS.461         	17.247         	0.337
MS.462         	17.212         	0.338
MS.463         	17.18          	0.334
MS.464         	17.145         	0.343
MS.465         	17.11          	0.342
MS.466         	17.077         	0.342
MS.467         	17.042         	0.337
MS.468         	17.007         	0.339
MS.469         	16.975         	0.337
MS.470         	16.94          	0.337
MS.471         	16.907         	0.214
MS.472         	16.872         	0.216
MS.473         	16.84          	0.336
MS.474         	16.805         	0.334
MS.475         	16.772         	0.22
MS.476         	16.737         	0.214
MS.477         	16.705         	0.338
MS.478         	16.672         	0.216
MS.479         	16.637         	0.214
MS.480         	16.605         	0.334
MS.481         	16.573         	0.219
MS.482         	16.538         	0.217
MS.483         	16.505         	0.216
MS.484         	16.472         	0.217
MS.485         	16.44          	0.215
MS.486         	16.407         	0.215
MS.487         	16.375         	0.217
MS.488         	16.34          	0.211
MS.489         	16.307         	0.219
MS.490         	16.275         	0.21
MS.491         	16.243         	0.219
MS.492         	16.21          	0.22
MS.493         	16.177         	0.22
MS.494         	16.147         	0.216
MS.495         	16.115         	0.221
MS.496         	16.083         	0.219
MS.497         	16.05          	0.216
MS.498         	16.017         	0.216
MS.499         	15.985         	0.216
MS.500         	15.952         	0.216
MS.501         	15.922         	0.217
MS.502         	15.89          	0.219
MS.503         	15.858         	0.22
MS.504         	15.827         	0.212
MS.505         	15.795         	0.214
MS.506         	15.762         	0.214
MS.507         	15.733         	0.215
MS.508         	15.7           	0.211
MS.509         	15.67          	0.209
MS.510         	15.637         	0.205
MS.511         	15.608         	0.208
MS.512         	15.575         	0.209
MS.513         	15.545         	0.205
MS.514         	15.512         	0.221
MS.515         	15.483         	0.205
MS.516         	15.45          	0.203
MS.517         	15.42          	0.203
MS.518         	15.39          	0.204
MS.519         	15.36          	0.208
MS.520         	15.327         	0.208
MS.521         	15.297         	0.206
MS.522         	15.267         	0.211
MS.523         	15.237         	0.206
MS.524         	15.205         	0.109
MS.525         	15.175         	0.194
MS.526         	15.145         	0.206
MS.527         	15.115         	0.116
MS.528         	15.085         	0.114
MS.529         	15.055         	0.206
MS.530         	15.025         	0.192
MS.531         	14.995         	0.198
MS.532         	14.965         	0.203
MS.533         	14.935         	0.1
MS.534         	14.905         	0.078
MS.535         	14.875         	0.112
MS.536         	14.845         	0.106
MS.537         	14.815         	0.193
MS.538         	14.785         	0.049
MS.539         	14.757         	0.049
MS.540         	14.727         	0.045
MS.541         	14.697         	0.11
MS.542         	14.667         	0.04
MS.543         	14.64          	0.048
MS.544         	14.61          	0.104
MS.545         	14.58          	0.048
MS.546         	14.552         	0.046
MS.547         	14.523         	0.045
MS.548         	14.492         	0.046
MS.549         	14.465         	0.043
MS.550         	14.435         	0.045
MS.551         	14.407         	0.043
MS.552         	14.377         	0.048
MS.553         	14.35          	0.046
MS.554         	14.32          	0.048
MS.555         	14.292         	0.042
MS.556         	14.262         	0.044
MS.557         	14.235         	0.043
MS.558         	14.207         	0.044
MS.559         	14.177         	0.046
MS.560         	14.15          	0.043
MS.561         	14.122         	0.046
MS.562         	14.092         	0.043
MS.563         	14.065         	0.042
MS.564         	14.037         	0.045
MS.565         	14.01          	0.04
MS.566         	13.98          	0.045
MS.567         	13.952         	0.044
MS.568         	13.925         	0.044
MS.569         	13.898         	0.046
MS.570         	13.87          	0.043
MS.571         	13.842         	0.045
MS.572         	13.815         	0.046
MS.573         	13.787         	0.042
MS.574         	13.76          	0.044
MS.575         	13.733         	0.04
MS.576         	13.705         	0.043
MS.577         	13.677         	0.043
MS.578         	13.65          	0.044
MS.579         	13.622         	0.039
MS.580         	13.595         	0.045
MS.581         	13.568         	0.042
MS.582         	13.54          	0.042
MS.583         	13.512         	0.04
MS.584         	13.487         	0.039
MS.585         	13.46          	0.046
MS.586         	13.432         	0.037
MS.587         	13.405         	0.045
MS.588         	13.38          	0.043
MS.589         	13.352         	0.045
MS.590         	13.325         	0.039
MS.591         	13.3           	0.042
MS.592         	13.273         	0.045
MS.593         	13.245         	0.045
MS.594         	13.22          	0.046
MS.595         	13.193         	0.042
MS.596         	13.167         	0.043
MS.597         	13.14          	0.04
MS.598         	13.115         	0.04
MS.599         	13.087         	0.042
MS.600         	13.062         	0.04
MS.601         	13.035         	0.045
MS.602         	13.01          	0.043
MS.603         	12.983         	0.042
MS.604         	12.957         	0.038
MS.605         	12.932         	0.042
MS.606         	12.905         	0.042
MS.607         	12.88          	0.038
MS.608         	12.855         	0.038
MS.609         	12.83          	0.038
MS.610         	12.802         	0.04
MS.611         	12.778         	0.044
MS.612         	12.752         	0.042
MS.613         	12.727         	0.037
MS.614         	12.7           	0.034
MS.615         	12.675         	0.039
MS.616         	12.65          	0.035
MS.617         	12.625         	0.035
MS.618         	12.6           	0.029
MS.619         	12.575         	0.039
MS.620         	12.55          	0.04
MS.621         	12.525         	0.034
MS.622         	12.5           	0.037
MS.623         	12.475         	0.037
MS.624         	12.45          	0.037
MS.625         	12.425         	0.035
MS.626         	12.4           	0.034
MS.627         	12.375         	0.028
MS.628         	12.35          	0.032
MS.629         	12.325         	0.033
MS.630         	12.3           	0.033
MS.631         	12.278         	0.034
MS.632         	12.252         	0.027
MS.633         	12.227         	0.034
MS.634         	12.202         	0.033
MS.635         	12.177         	0.031
MS.636         	12.155         	0.035
MS.637         	12.13          	0.033
MS.638         	12.105         	0.033
MS.639         	12.082         	0.034
MS.640         	12.057         	0.033
MS.641         	12.032         	0.031
MS.642         	12.01          	0.032
MS.643         	11.985         	0.031
MS.644         	11.962         	0.031
MS.645         	11.938         	0.032
MS.646         	11.912         	0.029
MS.647         	11.89          	0.035
MS.648         	11.865         	0.034
MS.649         	11.842         	0.028
MS.650         	11.82          	0.027
MS.651         	11.795         	0.029
MS.652         	11.773         	0.028
MS.653         	11.747         	0.029
MS.654         	11.725         	0.032
MS.655         	11.7           	0.031
MS.656         	11.677         	0.029
MS.657         	11.655         	0.029
MS.658         	11.63          	0.026
MS.659         	11.608         	0.029
MS.660         	11.585         	0.031
MS.661         	11.562         	0.026
MS.662         	11.537         	0.026
MS.663         	11.515         	0.029
MS.664         	11.492         	0.029
MS.665         	11.47          	0.027
MS.666         	11.447         	0.029
MS.667         	11.422         	0.027
MS.668         	11.4           	0.028
MS.669         	11.377         	0.033
MS.670         	11.355         	0.027
MS.671         	11.332         	0.028
MS.672         	11.31          	0.027
MS.673         	11.287         	0.027
MS.674         	11.265         	0.027
MS.675         	11.242         	0.029
MS.676         	11.22          	0.026
MS.677         	11.197         	0.028
MS.678         	11.175         	0.027
MS.679         	11.153         	0.027
MS.680         	11.13          	0.027
MS.681         	11.108         	0.028
MS.682         	11.085         	0.029
MS.683         	11.065         	0.031
MS.684         	11.042         	0.026
MS.685         	11.02          	0.028
MS.686         	10.997         	0.026
MS.687         	10.975         	0.024
MS.688         	10.955         	0.028
MS.689         	10.932         	0.026
MS.690         	10.91          	0.026
MS.691         	10.887         	0.029
MS.692         	10.867         	0.028
MS.693         	10.845         	0.028
MS.694         	10.823         	0.028
MS.695         	10.802         	0.028
MS.696         	10.78          	0.027
MS.697         	10.757         	0.028
MS.698         	10.738         	0.028
MS.699         	10.715         	0.028
MS.700         	10.695         	0.026
MS.701         	10.672         	0.029
MS.702         	10.653         	0.028
MS.703         	10.63          	0.028
MS.704         	10.61          	0.026
MS.705         	10.587         	0.029
MS.706         	10.568         	0.028
MS.707         	10.545         	0.027
MS.708         	10.525         	0.026
MS.709         	10.502         	0.024
MS.710         	10.483         	0.029
MS.711         	10.462         	0.027
MS.712         	10.44          	0.027
MS.713         	10.42          	0.031
MS.714         	10.4           	0.026
MS.715         	10.377         	0.028
MS.716         	10.358         	0.028
MS.717         	10.337         	0.024
MS.718         	10.315         	0.028
MS.719         	10.295         	0.024
MS.720         	10.275         	0.026
MS.721         	10.255         	0.027
MS.722         	10.233         	0.028
MS.723         	10.212         	0.023
MS.724         	10.193         	0.024
MS.725         	10.172         	0.024
MS.726         	10.153         	0.024
MS.727         	10.132         	0.029
MS.728         	10.113         	0.026
MS.729         	10.092         	0.022
MS.730         	10.073         	0.023
MS.731         	10.05          	0.026
MS.732         	10.03          	0.026
MS.733         	10.01          	0.026
MS.734         	9.99           	0.026
MS.735         	9.97           	0.027
MS.736         	9.95           	0.027
MS.737         	9.932          	0.021
MS.738         	9.912          	0.027
MS.739         	9.892          	0.027
MS.740         	9.872          	0.024
MS.741         	9.852          	0.023
MS.742         	9.832          	0.028
MS.743         	9.812          	0.026
MS.744         	9.792          	0.022
MS.745         	9.773          	0.021
MS.746         	9.755          	0.022
MS.747         	9.735          	0.022
MS.748         	9.715          	0.026
MS.749         	9.695          	0.021
MS.750         	9.677          	0.023
MS.751         	9.657          	0.024
MS.752         	9.637          	0.024
MS.753         	9.617          	0.021
MS.754         	9.6            	0.02
MS.755         	9.58           	0.02
MS.756         	9.56           	0.022
MS.757         	9.542          	0.028
MS.758         	9.523          	0.021
MS.759         	9.505          	0.022
MS.760         	9.485          	0.029
MS.761         	9.465          	0.027
MS.762         	9.448          	0.02
MS.763         	9.427          	0.023
MS.764         	9.41           	0.02
MS.765         	9.39           	0.02
MS.766         	9.372          	0.028
MS.767         	9.352          	0.026
MS.768         	9.335          	0.02
MS.769         	9.315          	0.022
MS.770         	9.297          	0.018
MS.771         	9.278          	0.022
MS.772         	9.26           	0.021
MS.773         	9.242          	0.022
MS.774         	9.222          	0.022
MS.775         	9.205          	0.021
MS.776         	9.185          	0.021
MS.777         	9.167          	0.022
MS.778         	9.15           	0.018
DERIVED EXCITABILITY VARIABLES
Program = QTracP 3/4/2020
Threshold method = 6 (optimised for CAP, using data for present condition only)
SR method = 1 (using actual data values)
6.                 	0.000               	Peak response\(mV)
9.                 	32.2                	Temperature ( C)
17.                	75                  	Age (years)
18.                	1                   	Sex (M=1, F=2)

EXTRA VARIABLES

MScPeak(mV) = 13.5
MScS5(mA) = 18.9
MScS50(mA) = 25.72
MScS95(mA) = 31.84
MScNSteps = 2
MScSteps(%) = 9
MScStepMax(%) = 6.9
MScD50 = 36
MScSlope = 4.39
MSFPeakAmp(mV) = 13.5
MSFNUnits = 91
MSFMeanUnitAmp(uV) = 148.5
MSFHuntTime(m) = 2.64
MSFError(%) = 10.3
MSFNLarge = 22.28
MSFMedianAmp(%) = 0.792
MSFMedianAmp(mV) = 0.107
MSFHalfAmpAmp(%) = 1.48
MSFHalfAmpAmp(mV) = 0.2
MSFLargestAmp(%) = 7.44
MSFLargestAmp(mV) = 1.01
MSFMeanRS(%) = 2
MSFOpts = 10106121
MScDuration(min) = 7.4
MSFTraces = 472
MSFSizeLimit(uV) = 33.8
MSFLimitType = 1
MSFSmallestAmp(uV) = 45

EXTRA WAVEFORMS


!MScan Model
!91
	1	14.76	0.34	2
	2	15.08	0.66	2
	3	16.33	0.43	2
	4	16.78	0.38	2
	5	17.4	0.54	2
	6	18.37	0.34	2
	7	18.61	0.6	2
	8	18.66	0.4	2
	9	18.78	0.63	2
	10	18.88	0.53	2
	11	18.96	0.44	2
	12	19.23	0.78	2
	13	19.48	0.37	2
	14	19.7	0.38	2
	15	20.02	0.64	2
	16	20.23	0.57	2
	17	20.35	0.35	2
	18	20.45	0.49	2
	19	20.53	0.37	2
	20	20.62	0.4	2
	21	20.85	0.98	2
	22	20.99	0.37	2
	23	21.14	0.54	2
	24	21.29	0.53	2
	25	21.42	0.71	2
	26	21.52	0.65	2
	27	21.59	0.53	2
	28	21.67	0.69	2
	29	21.77	0.99	2
	30	21.87	1.19	2
	31	21.98	1.14	2
	32	22.09	1.43	2
	33	22.22	1.48	2
	34	22.51	2.53	2
	35	22.71	1.53	2
	36	22.93	2.07	2
	37	23.43	2.18	2
	38	23.61	1.06	2
	39	23.7	0.85	2
	40	23.8	0.79	2
	41	23.92	0.65	2
	42	24.03	0.63	2
	43	24.18	0.83	2
	44	24.3	0.53	2
	45	24.41	0.33	2
	46	24.51	0.46	2
	47	24.91	0.47	2.4
	48	25.23	7.44	2
	49	25.5	2.43	2
	50	25.6	2.24	2
	51	25.69	2.34	2
	52	25.76	1.08	2
	53	25.8	0.74	2
	54	25.84	0.68	2
	55	25.89	0.47	2
	56	25.93	0.44	2
	57	25.98	0.65	2
	58	26.02	0.68	2
	59	26.17	2.13	2
	60	26.36	1	2
	61	26.51	1.55	2
	62	26.63	0.96	2
	63	26.74	0.52	2
	64	26.87	1.52	2
	65	27	1.26	2
	66	27.17	1.63	2
	67	27.73	3.07	2
	68	27.99	1.3	2
	69	28.13	0.76	2
	70	28.28	1.51	2
	71	28.42	1.47	2
	72	28.55	1.39	2
	73	28.67	1.57	2
	74	28.8	1.6	2
	75	28.96	1.71	2
	76	29.22	2.22	2
	77	29.74	1.15	2
	78	30.19	0.41	2
	79	30.49	1.66	2
	80	30.66	1.92	2
	81	30.83	1.47	2
	82	30.9	0.57	2
	83	30.98	0.36	2
	84	31.05	0.55	2
	85	31.13	0.92	2
	86	31.29	1.8	2
	87	32.16	2.93	2
	88	32.45	1.11	2
	89	32.67	1	2
	90	32.91	1.2	2
	91	33.18	0.81	2

