File:              	C:\Qtrac\Data\Daniel M Sørensen\MScan multicentre study\Data from centres\Edmonton\MSCC00218E.QZD
Name:              	CA.EDM.NC.4.2
Protocol:          	MSCAN-R2
Date:              	18/2/20
Start time:        	13:28:23
Age:               	59
Sex:               	F
Temperature:       	30.0
S/R sites:         	Median Wr-APB
NC/disease:        	NC
Operator:          	KJ
Comments:
M-SCAN DATA (7.7-1.6m)
Scanpts: 59, 70, 634, 655
Stim. (mA)     	Amp. (mV)
MS.1           	11             	11.297
MS.2           	11             	11.283
MS.3           	11             	11.295
MS.4           	11             	11.283
MS.5           	11             	11.261
MS.6           	11             	11.273
MS.7           	11             	11.271
MS.8           	11             	11.285
MS.9           	11             	11.289
MS.10          	11             	11.297
MS.11          	11             	11.287
MS.12          	11             	11.297
MS.13          	11             	11.293
MS.14          	11             	11.293
MS.15          	11             	11.287
MS.16          	11             	11.269
MS.17          	11             	11.316
MS.18          	11             	11.291
MS.19          	11             	11.283
MS.20          	11             	11.289
MS.21          	11             	11.291
MS.22          	11             	11.295
MS.23          	11             	11.307
MS.24          	10.955         	11.291
MS.25          	10.935         	11.297
MS.26          	10.912         	11.293
MS.27          	10.89          	11.303
MS.28          	10.867         	11.32
MS.29          	10.847         	11.303
MS.30          	10.825         	11.316
MS.31          	10.802         	11.312
MS.32          	10.782         	11.299
MS.33          	10.76          	11.303
MS.34          	10.74          	11.295
MS.35          	10.717         	11.297
MS.36          	10.695         	11.291
MS.37          	10.675         	11.289
MS.38          	10.653         	11.277
MS.39          	10.632         	11.299
MS.40          	10.61          	11.283
MS.41          	10.59          	11.285
MS.42          	10.568         	11.285
MS.43          	10.547         	11.285
MS.44          	10.528         	11.299
MS.45          	10.505         	11.287
MS.46          	10.485         	11.285
MS.47          	10.462         	11.289
MS.48          	10.443         	11.307
MS.49          	10.422         	11.303
MS.50          	10.4           	11.307
MS.51          	10.38          	11.281
MS.52          	10.36          	11.295
MS.53          	10.337         	11.277
MS.54          	10.318         	11.295
MS.55          	10.297         	11.299
MS.56          	10.278         	11.291
MS.57          	10.257         	11.277
MS.58          	10.235         	11.289
MS.59          	10.215         	11.287
MS.60          	10.195         	11.291
MS.61          	10.175         	11.289
MS.62          	10.155         	11.295
MS.63          	10.135         	11.295
MS.64          	10.113         	11.301
MS.65          	10.092         	11.301
MS.66          	10.073         	11.295
MS.67          	10.052         	11.293
MS.68          	10.032         	11.297
MS.69          	10.012         	11.291
MS.70          	9.992          	11.287
MS.71          	9.972          	11.299
MS.72          	9.952          	11.301
MS.73          	9.932          	11.291
MS.74          	9.912          	11.293
MS.75          	9.892          	11.289
MS.76          	9.875          	11.312
MS.77          	9.855          	11.31
MS.78          	9.835          	11.31
MS.79          	9.815          	11.297
MS.80          	9.795          	11.316
MS.81          	9.775          	11.297
MS.82          	9.755          	11.312
MS.83          	9.738          	11.303
MS.84          	9.717          	11.299
MS.85          	9.698          	11.303
MS.86          	9.677          	11.299
MS.87          	9.66           	11.289
MS.88          	9.64           	11.225
MS.89          	9.62           	11.285
MS.90          	9.6            	11.301
MS.91          	9.582          	11.275
MS.92          	9.562          	11.203
MS.93          	9.545          	11.185
MS.94          	9.525          	11.293
MS.95          	9.505          	11.211
MS.96          	9.488          	11.281
MS.97          	9.467          	11.275
MS.98          	9.45           	11.215
MS.99          	9.43           	11.199
MS.100         	9.41           	11.197
MS.101         	9.392          	11.189
MS.102         	9.372          	11.183
MS.103         	9.355          	11.193
MS.104         	9.335          	11.181
MS.105         	9.318          	11.187
MS.106         	9.3            	11.185
MS.107         	9.28           	11.209
MS.108         	9.262          	11.205
MS.109         	9.242          	11.171
MS.110         	9.225          	11.193
MS.111         	9.207          	11.179
MS.112         	9.188          	11.179
MS.113         	9.17           	11.191
MS.114         	9.153          	11.162
MS.115         	9.132          	11.177
MS.116         	9.115          	11.185
MS.117         	9.097          	11.167
MS.118         	9.077          	11.173
MS.119         	9.06           	11.175
MS.120         	9.042          	11.181
MS.121         	9.025          	11.179
MS.122         	9.005          	11.185
MS.123         	8.988          	11.156
MS.124         	8.97           	11.158
MS.125         	8.952          	11.154
MS.126         	8.935          	11.156
MS.127         	8.917          	11.169
MS.128         	8.898          	11.15
MS.129         	8.88           	11.15
MS.130         	8.863          	11.156
MS.131         	8.845          	11.162
MS.132         	8.827          	11.15
MS.133         	8.81           	10.87
MS.134         	8.792          	11.154
MS.135         	8.775          	10.937
MS.136         	8.757          	10.939
MS.137         	8.74           	10.937
MS.138         	8.722          	10.935
MS.139         	8.705          	10.945
MS.140         	8.688          	11.126
MS.141         	8.67           	11.154
MS.142         	8.653          	10.945
MS.143         	8.635          	10.915
MS.144         	8.617          	10.848
MS.145         	8.6            	10.848
MS.146         	8.585          	10.876
MS.147         	8.568          	10.858
MS.148         	8.55           	10.864
MS.149         	8.533          	10.84
MS.150         	8.515          	10.729
MS.151         	8.497          	10.878
MS.152         	8.483          	10.858
MS.153         	8.465          	11.064
MS.154         	8.448          	11.05
MS.155         	8.43           	10.858
MS.156         	8.415          	10.691
MS.157         	8.398          	10.697
MS.158         	8.38           	10.885
MS.159         	8.363          	10.697
MS.160         	8.347          	10.466
MS.161         	8.33           	10.713
MS.162         	8.312          	10.441
MS.163         	8.297          	10.697
MS.164         	8.28           	10.725
MS.165         	8.265          	10.846
MS.166         	8.247          	10.582
MS.167         	8.23           	10.123
MS.168         	8.215          	10.413
MS.169         	8.198          	10.685
MS.170         	8.182          	10.607
MS.171         	8.165          	10.679
MS.172         	8.15           	10.659
MS.173         	8.132          	10.403
MS.174         	8.117          	10.115
MS.175         	8.1            	10.296
MS.176         	8.085          	10.393
MS.177         	8.068          	10.061
MS.178         	8.052          	10.055
MS.179         	8.035          	10.105
MS.180         	8.02           	10.399
MS.181         	8.002          	10.057
MS.182         	7.987          	10.004
MS.183         	7.972          	10
MS.184         	7.955          	10.055
MS.185         	7.94           	10.065
MS.186         	7.925          	9.928
MS.187         	7.907          	9.94
MS.188         	7.892          	9.597
MS.189         	7.878          	9.942
MS.190         	7.86           	9.712
MS.191         	7.845          	9.346
MS.192         	7.83           	9.322
MS.193         	7.815          	9.465
MS.194         	7.797          	9.291
MS.195         	7.782          	9.688
MS.196         	7.767          	9.299
MS.197         	7.753          	9.174
MS.198         	7.735          	8.903
MS.199         	7.72           	9.293
MS.200         	7.705          	8.864
MS.201         	7.69           	8.983
MS.202         	7.675          	8.709
MS.203         	7.66           	8.882
MS.204         	7.645          	8.731
MS.205         	7.628          	8.524
MS.206         	7.612          	8.129
MS.207         	7.597          	7.595
MS.208         	7.582          	8.294
MS.209         	7.567          	8.49
MS.210         	7.552          	8.192
MS.211         	7.537          	7.958
MS.212         	7.523          	7.456
MS.213         	7.507          	7.686
MS.214         	7.492          	8.081
MS.215         	7.477          	7.372
MS.216         	7.462          	7.595
MS.217         	7.447          	7.41
MS.218         	7.432          	7.195
MS.219         	7.418          	7.362
MS.220         	7.402          	7.235
MS.221         	7.387          	7.285
MS.222         	7.372          	6.905
MS.223         	7.36           	7.249
MS.224         	7.345          	7.042
MS.225         	7.33           	6.977
MS.226         	7.315          	6.798
MS.227         	7.3            	7.029
MS.228         	7.285          	6.919
MS.229         	7.27           	6.81
MS.230         	7.257          	6.755
MS.231         	7.242          	6.88
MS.232         	7.227          	6.755
MS.233         	7.212          	6.635
MS.234         	7.197          	6.518
MS.235         	7.185          	6.747
MS.236         	7.17           	6.61
MS.237         	7.155          	6.357
MS.238         	7.142          	6.322
MS.239         	7.128          	6.435
MS.240         	7.112          	6.262
MS.241         	7.097          	6.03
MS.242         	7.085          	6.782
MS.243         	7.07           	6.204
MS.244         	7.055          	5.817
MS.245         	7.043          	6.016
MS.246         	7.027          	6.097
MS.247         	7.015          	5.93
MS.248         	7              	5.99
MS.249         	6.985          	5.815
MS.250         	6.972          	5.591
MS.251         	6.957          	5.75
MS.252         	6.945          	5.607
MS.253         	6.93           	5.364
MS.254         	6.918          	5.466
MS.255         	6.902          	5.585
MS.256         	6.89           	4.939
MS.257         	6.875          	5.372
MS.258         	6.862          	5.311
MS.259         	6.847          	5.174
MS.260         	6.835          	4.909
MS.261         	6.82           	4.862
MS.262         	6.807          	4.58
MS.263         	6.793          	4.596
MS.264         	6.78           	4.794
MS.265         	6.765          	4.62
MS.266         	6.753          	4.526
MS.267         	6.74           	4.649
MS.268         	6.725          	4.6
MS.269         	6.712          	4.365
MS.270         	6.697          	4.242
MS.271         	6.685          	4.129
MS.272         	6.672          	4.625
MS.273         	6.657          	4.367
MS.274         	6.645          	4.349
MS.275         	6.632          	4.308
MS.276         	6.617          	4.185
MS.277         	6.605          	4.046
MS.278         	6.592          	4.042
MS.279         	6.58           	4.179
MS.280         	6.565          	4.063
MS.281         	6.552          	4.063
MS.282         	6.54           	3.879
MS.283         	6.527          	3.412
MS.284         	6.512          	3.779
MS.285         	6.5            	3.746
MS.286         	6.487          	3.583
MS.287         	6.475          	3.267
MS.288         	6.462          	3.714
MS.289         	6.45           	3.088
MS.290         	6.435          	3.821
MS.291         	6.422          	3.372
MS.292         	6.41           	3.084
MS.293         	6.398          	3.031
MS.294         	6.385          	3.422
MS.295         	6.372          	3.148
MS.296         	6.36           	2.935
MS.297         	6.347          	3.124
MS.298         	6.332          	2.522
MS.299         	6.32           	2.562
MS.300         	6.307          	2.993
MS.301         	6.295          	2.63
MS.302         	6.282          	2.896
MS.303         	6.27           	2.203
MS.304         	6.257          	2.469
MS.305         	6.245          	2.143
MS.306         	6.233          	2.572
MS.307         	6.22           	2.52
MS.308         	6.207          	2.05
MS.309         	6.195          	2.216
MS.310         	6.182          	1.73
MS.311         	6.17           	2.151
MS.312         	6.16           	1.756
MS.313         	6.148          	1.871
MS.314         	6.135          	1.613
MS.315         	6.122          	1.857
MS.316         	6.11           	1.503
MS.317         	6.097          	1.809
MS.318         	6.085          	2.024
MS.319         	6.072          	1.233
MS.320         	6.06           	1.539
MS.321         	6.05           	1.46
MS.322         	6.037          	1.323
MS.323         	6.025          	1.265
MS.324         	6.012          	1.543
MS.325         	6              	1.156
MS.326         	5.99           	0.955
MS.327         	5.977          	1.297
MS.328         	5.965          	0.848
MS.329         	5.952          	0.965
MS.330         	5.94           	0.882
MS.331         	5.93           	1.011
MS.332         	5.918          	0.737
MS.333         	5.905          	0.715
MS.334         	5.892          	0.701
MS.335         	5.882          	0.8
MS.336         	5.87           	0.697
MS.337         	5.858          	0.699
MS.338         	5.847          	0.574
MS.339         	5.835          	0.512
MS.340         	5.822          	0.61
MS.341         	5.812          	0.616
MS.342         	5.8            	0.461
MS.343         	5.787          	0.542
MS.344         	5.777          	0.576
MS.345         	5.765          	0.634
MS.346         	5.755          	0.473
MS.347         	5.742          	0.389
MS.348         	5.73           	0.425
MS.349         	5.72           	0.469
MS.350         	5.707          	0.483
MS.351         	5.697          	0.443
MS.352         	5.685          	0.375
MS.353         	5.675          	0.334
MS.354         	5.662          	0.417
MS.355         	5.652          	0.397
MS.356         	5.64           	0.316
MS.357         	5.63           	0.336
MS.358         	5.617          	0.292
MS.359         	5.608          	0.332
MS.360         	5.595          	0.33
MS.361         	5.585          	0.312
MS.362         	5.572          	0.31
MS.363         	5.562          	0.32
MS.364         	5.55           	0.32
MS.365         	5.54           	0.288
MS.366         	5.527          	0.294
MS.367         	5.517          	0.292
MS.368         	5.507          	0.316
MS.369         	5.495          	0.31
MS.370         	5.485          	0.28
MS.371         	5.472          	0.282
MS.372         	5.463          	0.28
MS.373         	5.452          	0.286
MS.374         	5.44           	0.274
MS.375         	5.43           	0.282
MS.376         	5.42           	0.278
MS.377         	5.407          	0.276
MS.378         	5.398          	0.28
MS.379         	5.387          	0.282
MS.380         	5.375          	0.24
MS.381         	5.365          	0.28
MS.382         	5.355          	0.276
MS.383         	5.342          	0.282
MS.384         	5.332          	0.282
MS.385         	5.322          	0.28
MS.386         	5.312          	0.284
MS.387         	5.3            	0.24
MS.388         	5.29           	0.278
MS.389         	5.28           	0.238
MS.390         	5.27           	0.28
MS.391         	5.257          	0.28
MS.392         	5.247          	0.278
MS.393         	5.237          	0.28
MS.394         	5.227          	0.236
MS.395         	5.217          	0.24
MS.396         	5.207          	0.284
MS.397         	5.195          	0.236
MS.398         	5.185          	0.244
MS.399         	5.175          	0.24
MS.400         	5.165          	0.234
MS.401         	5.155          	0.262
MS.402         	5.145          	0.276
MS.403         	5.135          	0.282
MS.404         	5.125          	0.234
MS.405         	5.112          	0.276
MS.406         	5.102          	0.24
MS.407         	5.092          	0.236
MS.408         	5.082          	0.242
MS.409         	5.072          	0.242
MS.410         	5.062          	0.232
MS.411         	5.052          	0.232
MS.412         	5.043          	0.22
MS.413         	5.032          	0.242
MS.414         	5.023          	0.211
MS.415         	5.012          	0.234
MS.416         	5.003          	0.228
MS.417         	4.992          	0.242
MS.418         	4.983          	0.228
MS.419         	4.972          	0.246
MS.420         	4.963          	0.226
MS.421         	4.952          	0.064
MS.422         	4.943          	0.077
MS.423         	4.932          	0.226
MS.424         	4.922          	0.224
MS.425         	4.912          	0.234
MS.426         	4.902          	0.242
MS.427         	4.892          	0.244
MS.428         	4.882          	0.236
MS.429         	4.875          	0.238
MS.430         	4.865          	0.228
MS.431         	4.855          	0.232
MS.432         	4.845          	0.066
MS.433         	4.835          	0.068
MS.434         	4.825          	0.06
MS.435         	4.815          	0.226
MS.436         	4.805          	0.062
MS.437         	4.797          	0.226
MS.438         	4.787          	0.058
MS.439         	4.777          	0.046
MS.440         	4.767          	0.081
MS.441         	4.757          	0.073
MS.442         	4.75           	0.06
MS.443         	4.74           	0.07
MS.444         	4.73           	0.068
MS.445         	4.72           	0.226
MS.446         	4.71           	0.075
MS.447         	4.702          	0.068
MS.448         	4.693          	0.079
MS.449         	4.682          	0.077
MS.450         	4.673          	0.073
MS.451         	4.665          	0.066
MS.452         	4.655          	0.068
MS.453         	4.645          	0.064
MS.454         	4.635          	0.064
MS.455         	4.628          	0.062
MS.456         	4.617          	0.07
MS.457         	4.608          	0.07
MS.458         	4.6            	0.07
MS.459         	4.59           	0.07
MS.460         	4.58           	0.066
MS.461         	4.572          	0.068
MS.462         	4.562          	0.066
MS.463         	4.552          	0.064
MS.464         	4.545          	0.07
MS.465         	4.535          	0.066
MS.466         	4.525          	0.062
MS.467         	4.517          	0.064
MS.468         	4.507          	0.066
MS.469         	4.5            	0.07
MS.470         	4.49           	0.068
MS.471         	4.48           	0.058
MS.472         	4.472          	0.075
MS.473         	4.463          	0.07
MS.474         	4.455          	0.064
MS.475         	4.445          	0.068
MS.476         	4.438          	0.068
MS.477         	4.427          	0.05
MS.478         	4.42           	0.052
MS.479         	4.41           	0.066
MS.480         	4.402          	0.068
MS.481         	4.392          	0.085
MS.482         	4.382          	0.07
MS.483         	4.375          	0.07
MS.484         	4.365          	0.056
MS.485         	4.358          	0.068
MS.486         	4.35           	0.079
MS.487         	4.34           	0.062
MS.488         	4.332          	0.083
MS.489         	4.322          	0.066
MS.490         	4.315          	0.073
MS.491         	4.305          	0.06
MS.492         	4.298          	0.054
MS.493         	4.287          	0.07
MS.494         	4.28           	0.056
MS.495         	4.27           	0.073
MS.496         	4.262          	0.073
MS.497         	4.255          	0.064
MS.498         	4.245          	0.062
MS.499         	4.237          	0.064
MS.500         	4.227          	0.066
MS.501         	4.22           	0.07
MS.502         	4.213          	0.075
MS.503         	4.202          	0.073
MS.504         	4.195          	0.087
MS.505         	4.188          	0.064
MS.506         	4.177          	0.056
MS.507         	4.17           	0.056
MS.508         	4.162          	0.062
MS.509         	4.152          	0.06
MS.510         	4.145          	0.062
MS.511         	4.137          	0.075
MS.512         	4.128          	0.048
MS.513         	4.12           	0.054
MS.514         	4.112          	0.073
MS.515         	4.102          	0.066
MS.516         	4.095          	0.062
MS.517         	4.088          	0.079
MS.518         	4.08           	0.077
MS.519         	4.07           	0.068
MS.520         	4.062          	0.07
MS.521         	4.055          	0.068
MS.522         	4.048          	0.068
MS.523         	4.037          	0.066
MS.524         	4.03           	0.064
MS.525         	4.023          	0.073
MS.526         	4.015          	0.06
MS.527         	4.007          	0.07
MS.528         	3.997          	0.073
MS.529         	3.99           	0.056
MS.530         	3.982          	0.064
MS.531         	3.975          	0.07
MS.532         	3.967          	0.07
MS.533         	3.957          	0.073
MS.534         	3.95           	0.068
MS.535         	3.942          	0.068
MS.536         	3.935          	0.058
MS.537         	3.928          	0.068
MS.538         	3.92           	0.073
MS.539         	3.912          	0.083
MS.540         	3.902          	0.077
MS.541         	3.895          	0.07
MS.542         	3.887          	0.044
MS.543         	3.88           	0.073
MS.544         	3.872          	0.048
MS.545         	3.865          	0.062
MS.546         	3.857          	0.066
MS.547         	3.85           	0.066
MS.548         	3.842          	0.066
MS.549         	3.835          	0.064
MS.550         	3.827          	0.073
MS.551         	3.817          	0.079
MS.552         	3.81           	0.064
MS.553         	3.803          	0.068
MS.554         	3.795          	0.075
MS.555         	3.787          	0.068
MS.556         	3.78           	0.066
MS.557         	3.772          	0.064
MS.558         	3.765          	0.068
MS.559         	3.757          	0.079
MS.560         	3.75           	0.068
MS.561         	3.742          	0.077
MS.562         	3.735          	0.07
MS.563         	3.727          	0.064
MS.564         	3.72           	0.058
MS.565         	3.712          	0.07
MS.566         	3.705          	0.044
MS.567         	3.697          	0.077
MS.568         	3.69           	0.068
MS.569         	3.682          	0.079
MS.570         	3.675          	0.05
MS.571         	3.67           	0.07
MS.572         	3.662          	0.075
MS.573         	3.655          	0.064
MS.574         	3.647          	0.073
MS.575         	3.64           	0.054
MS.576         	3.632          	0.068
MS.577         	3.625          	0.075
MS.578         	3.617          	0.06
MS.579         	3.61           	0.068
MS.580         	3.602          	0.07
MS.581         	3.595          	0.068
MS.582         	3.59           	0.07
MS.583         	3.582          	0.068
MS.584         	3.575          	0.066
MS.585         	3.567          	0.07
MS.586         	3.56           	0.07
MS.587         	3.553          	0.06
MS.588         	3.547          	0.075
MS.589         	3.54           	0.068
MS.590         	3.533          	0.064
MS.591         	3.525          	0.064
MS.592         	3.517          	0.066
MS.593         	3.51           	0.068
MS.594         	3.505          	0.064
MS.595         	3.497          	0.052
MS.596         	3.49           	0.073
MS.597         	3.482          	0.075
MS.598         	3.475          	0.06
MS.599         	3.47           	0.068
MS.600         	3.462          	0.073
MS.601         	3.455          	0.064
MS.602         	3.447          	0.068
MS.603         	3.442          	0.066
MS.604         	3.435          	0.006
MS.605         	3.428          	0.07
MS.606         	3.42           	0.012
MS.607         	3.415          	0.066
MS.608         	3.408          	0.058
MS.609         	3.4            	0.008
MS.610         	3.392          	0.014
MS.611         	3.387          	0.062
MS.612         	3.38           	0.014
MS.613         	3.372          	0.016
MS.614         	3.367          	0.022
MS.615         	3.36           	0.054
MS.616         	3.352          	0.016
MS.617         	3.347          	0.004
MS.618         	3.34           	0.006
MS.619         	3.332          	0.008
MS.620         	3.327          	0.014
MS.621         	3.32           	0.008
MS.622         	3.312          	0.052
MS.623         	3.307          	0.014
MS.624         	3.3            	0.046
MS.625         	3.293          	0.01
MS.626         	3.287          	0.006
MS.627         	3.28           	0.014
MS.628         	3.273          	0.018
MS.629         	3.267          	0.012
MS.630         	3.26           	0.006
MS.631         	3.255          	0.004
MS.632         	3.247          	0.01
MS.633         	3.24           	0.006
MS.634         	3.235          	0.01
MS.635         	3.227          	0.008
MS.636         	3.222          	0.022
MS.637         	3.215          	0.02
MS.638         	3.21           	0.008
MS.639         	3.202          	0.002
MS.640         	3.195          	0.012
MS.641         	3.19           	0.008
MS.642         	3.182          	0.02
MS.643         	3.178          	0.012
MS.644         	3.17           	0.012
MS.645         	3.165          	0.014
MS.646         	3.158          	0.006
MS.647         	3.152          	0.018
MS.648         	3.145          	0.018
MS.649         	3.14           	0.01
MS.650         	3.132          	0.008
MS.651         	3.127          	0.008
MS.652         	3.12           	0.01
MS.653         	3.115          	0.01
MS.654         	3.107          	0.006
MS.655         	3.102          	0.01
DERIVED EXCITABILITY VARIABLES
Program = QTracP 3/4/2020
Threshold method = 6 (optimised for CAP, using data for present condition only)
SR method = 1 (using actual data values)
6.                 	0.000               	Peak response\(mV)
9.                 	30                  	Temperature ( C)
17.                	59                  	Age (years)
18.                	2                   	Sex (M=1, F=2)

EXTRA VARIABLES

MScPeak(mV) = 11.28
MScS5(mA) = 5.8
MScS50(mA) = 6.96
MScS95(mA) = 8.34
MScNSteps = 4
MScSteps(%) = 9.1
MScStepMax(%) = 2.4
MScD50 = 38
MScSlope = 5.43
MSFPeakAmp(mV) = 11.3
MSFNUnits = 114
MSFMeanUnitAmp(uV) = 99
MSFHuntTime(m) = 3.37
MSFError(%) = 1.79
MSFNLarge = 31.68
MSFMedianAmp(%) = 0.755
MSFMedianAmp(mV) = 0.0852
MSFHalfAmpAmp(%) = 1.03
MSFHalfAmpAmp(mV) = 0.116
MSFLargestAmp(%) = 3.24
MSFLargestAmp(mV) = 0.365
MSFMeanRS(%) = 2.01
MSFOpts = 10106121
MScDuration(min) = 6.1
MSFTraces = 597
MSFSizeLimit(uV) = 28.2
MSFLimitType = 1
MSFSmallestAmp(uV) = 30.5

EXTRA WAVEFORMS


!MScan Model
!114
	1	3.38	0.55	2
	2	4.79	0.48	2
	3	4.85	0.87	2
	4	5.22	0.59	2
	5	5.59	0.49	2
	6	5.64	0.31	2
	7	5.68	0.41	2
	8	5.71	0.34	2
	9	5.78	0.76	2
	10	5.82	0.71	2
	11	5.85	0.42	2
	12	5.87	0.37	2
	13	5.88	0.28	2
	14	5.89	0.31	2
	15	5.91	0.49	2
	16	5.93	0.55	2
	17	5.95	0.83	2
	18	5.97	0.97	2
	19	6	0.82	2
	20	6.04	1.86	2
	21	6.09	2.15	2
	22	6.14	1.67	2
	23	6.16	0.68	2
	24	6.18	0.89	2
	25	6.2	1.22	2
	26	6.23	1.23	2
	27	6.25	1.34	2
	28	6.27	1.03	2
	29	6.29	0.6	2
	30	6.31	1.3	2
	31	6.36	2.04	2
	32	6.4	2.04	2
	33	6.45	2.1	2
	34	6.49	1.64	2
	35	6.52	1.23	2
	36	6.53	0.58	2
	37	6.55	0.53	2
	38	6.56	0.61	2
	39	6.64	2.48	2
	40	6.69	1.53	2
	41	6.71	0.48	2
	42	6.72	0.31	2
	43	6.74	0.46	2
	44	6.76	0.31	2
	45	6.77	0.49	2
	46	6.78	0.48	2
	47	6.79	0.46	2
	48	6.81	0.51	2
	49	6.82	0.55	2
	50	6.83	0.62	2
	51	6.84	0.76	2
	52	6.86	0.9	2
	53	6.88	0.91	2
	54	6.89	0.79	2
	55	6.91	0.7	2
	56	6.93	0.75	2
	57	6.94	0.9	2
	58	6.96	0.98	2
	59	6.99	0.9	2
	60	7.02	1.42	2
	61	7.05	1.37	2
	62	7.1	1.37	2
	63	7.12	0.67	2
	64	7.13	0.33	2
	65	7.14	0.33	2
	66	7.15	0.3	2
	67	7.16	0.27	2
	68	7.18	0.51	2
	69	7.18	0.3	2
	70	7.19	0.3	2
	71	7.21	0.54	2
	72	7.23	0.66	2
	73	7.25	0.55	2
	74	7.27	0.34	2
	75	7.28	0.32	2
	76	7.3	0.37	2
	77	7.31	0.37	2
	78	7.33	0.43	2
	79	7.34	0.44	2
	80	7.36	0.52	2
	81	7.38	0.56	2
	82	7.4	0.63	2
	83	7.41	0.76	2
	84	7.43	0.76	2
	85	7.45	0.59	2
	86	7.47	0.75	2
	87	7.49	1.04	2
	88	7.52	1.62	2
	89	7.53	0.96	2
	90	7.56	1.61	2
	91	7.59	1.29	2
	92	7.61	1.73	2
	93	7.63	1.45	2
	94	7.65	1.08	2
	95	7.67	0.83	2
	96	7.68	0.84	2
	97	7.7	0.76	2
	98	7.72	0.85	2.1
	99	7.74	1.06	2
	100	7.77	0.81	2
	101	7.79	0.98	2
	102	7.82	0.95	2
	103	7.86	0.92	2
	104	7.89	1.05	2
	105	7.92	1.03	2
	106	7.95	0.72	2
	107	8.01	3.24	2.4
	108	8.04	1.36	2
	109	8.11	0.87	2
	110	8.4	0.75	2
	111	8.52	1.66	2
	112	8.78	2.11	2
	113	9.17	0.53	2
	114	9.5	0.64	2

