File:              	C:\Qtrac\Data\MSCC00128A.QZD
Name:              	CA.EDM.NC.1.1
Protocol:          	MSCAN-R2
Date:              	28/1/20
Start time:        	13:44:43
Age:               	43
Sex:               	M
Temperature:       	30.7
S/R sites:         	Median Wr-APB
NC/disease:        	NC
Operator:          	KJ
Comments:
M-SCAN DATA (7.1-2m)
Scanpts: 99, 102, 548, 551
Stim. (mA)     	Amp. (mV)
MS.1           	14             	6.733
MS.2           	14             	6.717
MS.3           	14             	6.691
MS.4           	14             	6.659
MS.5           	14             	6.645
MS.6           	14             	6.627
MS.7           	14             	6.627
MS.8           	14             	6.627
MS.9           	14             	6.635
MS.10          	14             	6.645
MS.11          	14             	6.643
MS.12          	14             	6.629
MS.13          	14             	6.602
MS.14          	14             	6.639
MS.15          	14             	6.612
MS.16          	14             	6.621
MS.17          	14             	6.639
MS.18          	14             	6.621
MS.19          	14             	6.608
MS.20          	14             	6.631
MS.21          	14             	6.617
MS.22          	14             	6.617
MS.23          	14             	6.661
MS.24          	13.945         	6.641
MS.25          	13.915         	6.625
MS.26          	13.887         	6.596
MS.27          	13.86          	6.623
MS.28          	13.832         	6.629
MS.29          	13.805         	6.621
MS.30          	13.778         	6.647
MS.31          	13.75          	6.693
MS.32          	13.722         	6.766
MS.33          	13.695         	6.844
MS.34          	13.667         	6.844
MS.35          	13.64          	6.838
MS.36          	13.612         	6.836
MS.37          	13.585         	6.961
MS.38          	13.56          	6.82
MS.39          	13.532         	6.878
MS.40          	13.505         	6.802
MS.41          	13.477         	6.796
MS.42          	13.45          	6.753
MS.43          	13.425         	6.768
MS.44          	13.398         	6.733
MS.45          	13.37          	6.677
MS.46          	13.345         	6.61
MS.47          	13.318         	6.596
MS.48          	13.29          	6.596
MS.49          	13.265         	6.586
MS.50          	13.237         	6.596
MS.51          	13.21          	6.59
MS.52          	13.185         	6.574
MS.53          	13.157         	6.574
MS.54          	13.132         	6.596
MS.55          	13.105         	6.594
MS.56          	13.08          	6.55
MS.57          	13.052         	6.548
MS.58          	13.028         	6.606
MS.59          	13.002         	6.576
MS.60          	12.975         	6.584
MS.61          	12.95          	6.596
MS.62          	12.922         	6.59
MS.63          	12.898         	6.606
MS.64          	12.872         	6.59
MS.65          	12.847         	6.615
MS.66          	12.82          	6.649
MS.67          	12.795         	6.687
MS.68          	12.77          	6.639
MS.69          	12.745         	6.693
MS.70          	12.717         	6.679
MS.71          	12.693         	6.701
MS.72          	12.667         	6.635
MS.73          	12.642         	6.679
MS.74          	12.617         	6.713
MS.75          	12.592         	6.669
MS.76          	12.568         	6.766
MS.77          	12.542         	6.77
MS.78          	12.517         	6.725
MS.79          	12.492         	6.689
MS.80          	12.467         	6.701
MS.81          	12.443         	6.627
MS.82          	12.417         	6.596
MS.83          	12.392         	6.586
MS.84          	12.367         	6.596
MS.85          	12.342         	6.596
MS.86          	12.318         	6.524
MS.87          	12.292         	6.512
MS.88          	12.267         	6.528
MS.89          	12.245         	6.512
MS.90          	12.22          	6.51
MS.91          	12.195         	6.52
MS.92          	12.17          	6.518
MS.93          	12.148         	6.582
MS.94          	12.122         	6.48
MS.95          	12.097         	6.568
MS.96          	12.075         	6.522
MS.97          	12.05          	6.516
MS.98          	12.025         	6.514
MS.99          	12.002         	6.514
MS.100         	11.977         	6.496
MS.101         	11.955         	6.508
MS.102         	11.93          	6.536
MS.103         	11.905         	6.606
MS.104         	11.882         	6.592
MS.105         	11.858         	6.538
MS.106         	11.835         	6.556
MS.107         	11.812         	6.554
MS.108         	11.787         	6.562
MS.109         	11.765         	6.476
MS.110         	11.74          	6.54
MS.111         	11.717         	6.544
MS.112         	11.693         	6.528
MS.113         	11.67          	6.506
MS.114         	11.648         	6.482
MS.115         	11.625         	6.463
MS.116         	11.6           	6.49
MS.117         	11.577         	6.478
MS.118         	11.555         	6.528
MS.119         	11.53          	6.476
MS.120         	11.507         	6.532
MS.121         	11.485         	6.476
MS.122         	11.462         	6.461
MS.123         	11.44          	6.526
MS.124         	11.417         	6.476
MS.125         	11.392         	6.467
MS.126         	11.37          	6.532
MS.127         	11.347         	6.532
MS.128         	11.325         	6.486
MS.129         	11.302         	6.484
MS.130         	11.28          	6.476
MS.131         	11.257         	6.373
MS.132         	11.235         	6.478
MS.133         	11.212         	6.5
MS.134         	11.19          	6.506
MS.135         	11.167         	6.381
MS.136         	11.145         	6.494
MS.137         	11.122         	6.391
MS.138         	11.1           	6.504
MS.139         	11.08          	6.389
MS.140         	11.057         	6.401
MS.141         	11.035         	6.389
MS.142         	11.012         	6.401
MS.143         	10.99          	6.379
MS.144         	10.97          	6.365
MS.145         	10.948         	6.395
MS.146         	10.925         	6.28
MS.147         	10.903         	6.278
MS.148         	10.882         	6.262
MS.149         	10.86          	6.286
MS.150         	10.837         	6.28
MS.151         	10.818         	6.264
MS.152         	10.795         	6.202
MS.153         	10.773         	6.266
MS.154         	10.752         	6.063
MS.155         	10.73          	6.01
MS.156         	10.707         	6.055
MS.157         	10.688         	6.2
MS.158         	10.665         	5.998
MS.159         	10.645         	6.061
MS.160         	10.622         	5.934
MS.161         	10.602         	6
MS.162         	10.58          	6.069
MS.163         	10.56          	6.049
MS.164         	10.537         	5.934
MS.165         	10.517         	6.02
MS.166         	10.497         	5.964
MS.167         	10.475         	5.92
MS.168         	10.455         	5.871
MS.169         	10.435         	5.926
MS.170         	10.412         	5.779
MS.171         	10.392         	5.811
MS.172         	10.372         	5.875
MS.173         	10.35          	5.742
MS.174         	10.33          	5.803
MS.175         	10.31          	5.793
MS.176         	10.29          	5.662
MS.177         	10.267         	5.398
MS.178         	10.247         	5.68
MS.179         	10.227         	5.626
MS.180         	10.207         	5.481
MS.181         	10.188         	5.329
MS.182         	10.165         	5.402
MS.183         	10.145         	5.448
MS.184         	10.125         	5.408
MS.185         	10.105         	5.404
MS.186         	10.085         	5.329
MS.187         	10.065         	5.285
MS.188         	10.045         	5.128
MS.189         	10.025         	5.184
MS.190         	10.005         	5.184
MS.191         	9.985          	4.904
MS.192         	9.965          	5.128
MS.193         	9.945          	5.078
MS.194         	9.925          	5.003
MS.195         	9.905          	5.005
MS.196         	9.885          	4.931
MS.197         	9.865          	5.086
MS.198         	9.845          	4.902
MS.199         	9.825          	5.029
MS.200         	9.807          	5.186
MS.201         	9.787          	4.824
MS.202         	9.767          	5.029
MS.203         	9.747          	5.043
MS.204         	9.727          	4.949
MS.205         	9.71           	4.667
MS.206         	9.69           	4.802
MS.207         	9.67           	5.07
MS.208         	9.65           	4.794
MS.209         	9.632          	4.808
MS.210         	9.613          	4.902
MS.211         	9.592          	4.824
MS.212         	9.575          	4.554
MS.213         	9.555          	4.606
MS.214         	9.535          	4.564
MS.215         	9.517          	4.659
MS.216         	9.497          	4.465
MS.217         	9.48           	4.437
MS.218         	9.46           	4.306
MS.219         	9.44           	4.405
MS.220         	9.422          	4.29
MS.221         	9.403          	4.244
MS.222         	9.385          	4.24
MS.223         	9.365          	4.302
MS.224         	9.347          	4.193
MS.225         	9.327          	4.089
MS.226         	9.31           	3.966
MS.227         	9.29           	4.059
MS.228         	9.273          	3.968
MS.229         	9.255          	3.791
MS.230         	9.235          	3.849
MS.231         	9.217          	3.64
MS.232         	9.198          	3.72
MS.233         	9.18           	3.764
MS.234         	9.162          	3.718
MS.235         	9.142          	3.652
MS.236         	9.125          	3.662
MS.237         	9.108          	3.507
MS.238         	9.09           	3.605
MS.239         	9.07           	3.553
MS.240         	9.052          	3.867
MS.241         	9.035          	3.402
MS.242         	9.017          	3.605
MS.243         	8.997          	3.122
MS.244         	8.98           	3.529
MS.245         	8.962          	3.112
MS.246         	8.945          	3.505
MS.247         	8.927          	3.283
MS.248         	8.91           	3.289
MS.249         	8.89           	3.227
MS.250         	8.872          	3.408
MS.251         	8.855          	3.291
MS.252         	8.837          	3.136
MS.253         	8.82           	2.963
MS.254         	8.802          	3.084
MS.255         	8.785          	3.154
MS.256         	8.767          	3.027
MS.257         	8.75           	2.85
MS.258         	8.733          	3.086
MS.259         	8.715          	3.112
MS.260         	8.698          	2.923
MS.261         	8.68           	2.973
MS.262         	8.662          	2.788
MS.263         	8.645          	2.931
MS.264         	8.627          	2.969
MS.265         	8.61           	2.757
MS.266         	8.595          	2.622
MS.267         	8.577          	2.717
MS.268         	8.56           	2.677
MS.269         	8.542          	2.695
MS.270         	8.525          	2.755
MS.271         	8.507          	2.377
MS.272         	8.492          	2.709
MS.273         	8.475          	2.604
MS.274         	8.457          	2.693
MS.275         	8.44           	2.62
MS.276         	8.422          	1.972
MS.277         	8.408          	2.739
MS.278         	8.39           	2.149
MS.279         	8.372          	1.98
MS.280         	8.358          	2.451
MS.281         	8.34           	2.32
MS.282         	8.323          	2.238
MS.283         	8.307          	2.151
MS.284         	8.29           	2.034
MS.285         	8.273          	2.236
MS.286         	8.257          	1.895
MS.287         	8.24           	1.907
MS.288         	8.225          	1.774
MS.289         	8.207          	2.024
MS.290         	8.19           	1.605
MS.291         	8.175          	1.772
MS.292         	8.158          	1.559
MS.293         	8.142          	1.474
MS.294         	8.125          	1.66
MS.295         	8.11           	1.527
MS.296         	8.092          	1.428
MS.297         	8.077          	1.434
MS.298         	8.06           	1.356
MS.299         	8.045          	1.621
MS.300         	8.03           	1.458
MS.301         	8.012          	1.454
MS.302         	7.997          	1.42
MS.303         	7.98           	1.478
MS.304         	7.965          	1.345
MS.305         	7.95           	1.333
MS.306         	7.932          	1.265
MS.307         	7.918          	1.331
MS.308         	7.902          	1.249
MS.309         	7.885          	1.263
MS.310         	7.87           	1.182
MS.311         	7.855          	1.19
MS.312         	7.837          	1.156
MS.313         	7.822          	1.134
MS.314         	7.807          	1.053
MS.315         	7.793          	1.142
MS.316         	7.775          	1.061
MS.317         	7.76           	0.965
MS.318         	7.745          	1.08
MS.319         	7.73           	1.082
MS.320         	7.715          	1.078
MS.321         	7.697          	0.955
MS.322         	7.682          	0.939
MS.323         	7.668          	1.005
MS.324         	7.652          	0.961
MS.325         	7.637          	0.854
MS.326         	7.622          	0.84
MS.327         	7.607          	0.965
MS.328         	7.592          	0.929
MS.329         	7.577          	0.87
MS.330         	7.562          	0.709
MS.331         	7.547          	0.753
MS.332         	7.53           	0.842
MS.333         	7.515          	0.876
MS.334         	7.5            	0.894
MS.335         	7.485          	0.83
MS.336         	7.47           	0.826
MS.337         	7.457          	0.818
MS.338         	7.442          	0.838
MS.339         	7.427          	0.771
MS.340         	7.412          	0.826
MS.341         	7.398          	0.924
MS.342         	7.382          	0.703
MS.343         	7.367          	0.765
MS.344         	7.352          	0.816
MS.345         	7.337          	0.757
MS.346         	7.322          	0.689
MS.347         	7.307          	0.798
MS.348         	7.295          	0.733
MS.349         	7.28           	0.804
MS.350         	7.265          	0.741
MS.351         	7.25           	0.735
MS.352         	7.235          	0.715
MS.353         	7.222          	0.675
MS.354         	7.207          	0.691
MS.355         	7.192          	0.582
MS.356         	7.177          	0.572
MS.357         	7.165          	0.588
MS.358         	7.15           	0.594
MS.359         	7.135          	0.5
MS.360         	7.12           	0.528
MS.361         	7.108          	0.467
MS.362         	7.092          	0.602
MS.363         	7.077          	0.461
MS.364         	7.065          	0.459
MS.365         	7.05           	0.455
MS.366         	7.035          	0.461
MS.367         	7.023          	0.512
MS.368         	7.007          	0.417
MS.369         	6.995          	0.401
MS.370         	6.98           	0.463
MS.371         	6.965          	0.445
MS.372         	6.952          	0.461
MS.373         	6.938          	0.399
MS.374         	6.925          	0.439
MS.375         	6.91           	0.457
MS.376         	6.898          	0.431
MS.377         	6.882          	0.445
MS.378         	6.87           	0.449
MS.379         	6.855          	0.469
MS.380         	6.842          	0.443
MS.381         	6.827          	0.481
MS.382         	6.815          	0.435
MS.383         	6.8            	0.389
MS.384         	6.787          	0.383
MS.385         	6.773          	0.387
MS.386         	6.76           	0.405
MS.387         	6.747          	0.415
MS.388         	6.733          	0.397
MS.389         	6.72           	0.373
MS.390         	6.707          	0.391
MS.391         	6.692          	0.399
MS.392         	6.68           	0.389
MS.393         	6.665          	0.359
MS.394         	6.652          	0.473
MS.395         	6.64           	0.32
MS.396         	6.628          	0.318
MS.397         	6.612          	0.326
MS.398         	6.6            	0.324
MS.399         	6.587          	0.401
MS.400         	6.572          	0.318
MS.401         	6.56           	0.395
MS.402         	6.547          	0.314
MS.403         	6.535          	0.312
MS.404         	6.52           	0.338
MS.405         	6.507          	0.33
MS.406         	6.495          	0.348
MS.407         	6.483          	0.336
MS.408         	6.47           	0.322
MS.409         	6.457          	0.312
MS.410         	6.442          	0.334
MS.411         	6.43           	0.35
MS.412         	6.418          	0.3
MS.413         	6.405          	0.336
MS.414         	6.392          	0.322
MS.415         	6.38           	0.326
MS.416         	6.367          	0.304
MS.417         	6.355          	0.232
MS.418         	6.34           	0.314
MS.419         	6.327          	0.284
MS.420         	6.315          	0.322
MS.421         	6.302          	0.322
MS.422         	6.29           	0.306
MS.423         	6.277          	0.296
MS.424         	6.265          	0.316
MS.425         	6.253          	0.302
MS.426         	6.24           	0.31
MS.427         	6.227          	0.286
MS.428         	6.215          	0.298
MS.429         	6.202          	0.258
MS.430         	6.19           	0.262
MS.431         	6.177          	0.258
MS.432         	6.165          	0.256
MS.433         	6.152          	0.254
MS.434         	6.142          	0.244
MS.435         	6.13           	0.252
MS.436         	6.117          	0.264
MS.437         	6.105          	0.282
MS.438         	6.092          	0.24
MS.439         	6.08           	0.143
MS.440         	6.067          	0.248
MS.441         	6.055          	0.238
MS.442         	6.045          	0.141
MS.443         	6.032          	0.286
MS.444         	6.02           	0.266
MS.445         	6.007          	0.26
MS.446         	5.995          	0.24
MS.447         	5.985          	0.145
MS.448         	5.972          	0.163
MS.449         	5.96           	0.248
MS.450         	5.947          	0.226
MS.451         	5.935          	0.258
MS.452         	5.925          	0.252
MS.453         	5.912          	0.125
MS.454         	5.9            	0.125
MS.455         	5.89           	0.147
MS.456         	5.878          	0.121
MS.457         	5.865          	0.234
MS.458         	5.852          	0.147
MS.459         	5.842          	0.155
MS.460         	5.83           	0.147
MS.461         	5.817          	0.129
MS.462         	5.807          	0.129
MS.463         	5.795          	0.097
MS.464         	5.785          	0.123
MS.465         	5.773          	0.095
MS.466         	5.76           	0.109
MS.467         	5.75           	0.141
MS.468         	5.737          	0.131
MS.469         	5.725          	0.115
MS.470         	5.715          	0.099
MS.471         	5.702          	0.095
MS.472         	5.692          	0.127
MS.473         	5.68           	0.095
MS.474         	5.67           	0.135
MS.475         	5.657          	0.091
MS.476         	5.648          	0.091
MS.477         	5.635          	0.097
MS.478         	5.625          	0.095
MS.479         	5.612          	0.103
MS.480         	5.602          	0.081
MS.481         	5.59           	0.101
MS.482         	5.58           	0.077
MS.483         	5.567          	0.089
MS.484         	5.557          	0.093
MS.485         	5.545          	0.097
MS.486         	5.535          	0.073
MS.487         	5.523          	0.091
MS.488         	5.512          	0.091
MS.489         	5.503          	0.052
MS.490         	5.49           	0.056
MS.491         	5.48           	0.068
MS.492         	5.47           	0.058
MS.493         	5.457          	0.075
MS.494         	5.447          	0.054
MS.495         	5.435          	0.066
MS.496         	5.425          	0.054
MS.497         	5.415          	0.085
MS.498         	5.402          	0.05
MS.499         	5.392          	0.07
MS.500         	5.382          	0.05
MS.501         	5.37           	0.054
MS.502         	5.36           	0.075
MS.503         	5.35           	0.048
MS.504         	5.34           	0.05
MS.505         	5.327          	0.048
MS.506         	5.318          	0.052
MS.507         	5.307          	0.054
MS.508         	5.297          	0.05
MS.509         	5.285          	0.05
MS.510         	5.275          	0.014
MS.511         	5.265          	0.05
MS.512         	5.255          	0.052
MS.513         	5.245          	0.05
MS.514         	5.233          	0.052
MS.515         	5.222          	0.052
MS.516         	5.213          	0.05
MS.517         	5.202          	0.052
MS.518         	5.193          	0.046
MS.519         	5.182          	0.052
MS.520         	5.17           	0.048
MS.521         	5.16           	0.048
MS.522         	5.15           	0.048
MS.523         	5.14           	0.012
MS.524         	5.13           	0.048
MS.525         	5.12           	0.048
MS.526         	5.11           	0.052
MS.527         	5.1            	0.014
MS.528         	5.09           	0.012
MS.529         	5.077          	0.012
MS.530         	5.068          	0.01
MS.531         	5.057          	0.048
MS.532         	5.047          	0.01
MS.533         	5.037          	0.006
MS.534         	5.027          	0.01
MS.535         	5.017          	0.016
MS.536         	5.007          	0.012
MS.537         	4.997          	0.048
MS.538         	4.987          	0.05
MS.539         	4.977          	0.01
MS.540         	4.967          	0.01
MS.541         	4.957          	0.012
MS.542         	4.947          	0.01
MS.543         	4.938          	0.046
MS.544         	4.927          	0.008
MS.545         	4.918          	0.01
MS.546         	4.91           	0.008
MS.547         	4.9            	0.008
MS.548         	4.89           	0.008
MS.549         	4.88           	0.01
MS.550         	4.87           	0.01
MS.551         	4.86           	0.008
MS.552         	4.85           	0.048
MS.553         	4.84           	0.008
MS.554         	4.83           	0.01
MS.555         	4.822          	0.014
MS.556         	4.812          	0.012
MS.557         	4.802          	0.01
DERIVED EXCITABILITY VARIABLES
Program = QTracP 3/4/2020
Threshold method = 6 (optimised for CAP, using data for present condition only)
SR method = 1 (using actual data values)
6.                 	0.000               	Peak response\(mV)
9.                 	30.7                	Temperature ( C)
17.                	43                  	Age (years)
18.                	1                   	Sex (M=1, F=2)

EXTRA VARIABLES

MScPeak(mV) = 6.62
MScS5(mA) = 6.51
MScS50(mA) = 8.94
MScS95(mA) = 10.93
MScNSteps = 2
MScSteps(%) = 4.5
MScStepMax(%) = 2.3
MScD50 = 43
MScSlope = 5.37
MSFPeakAmp(mV) = 6.5
MSFNUnits = 94
MSFMeanUnitAmp(uV) = 69.2
MSFHuntTime(m) = 2.27
MSFError(%) = 3.54
MSFNLarge = 26.91
MSFMedianAmp(%) = 0.851
MSFMedianAmp(mV) = 0.0554
MSFHalfAmpAmp(%) = 1.23
MSFHalfAmpAmp(mV) = 0.0801
MSFLargestAmp(%) = 3.69
MSFLargestAmp(mV) = 0.24
MSFMeanRS(%) = 2
MSFOpts = 10106121
MScDuration(min) = 5.1
MSFTraces = 453
MSFSizeLimit(uV) = 16.3
MSFLimitType = 1
MSFSmallestAmp(uV) = 17.4

EXTRA WAVEFORMS


!MScan Model
!94
	1	5.12	0.4	2
	2	5.41	0.43	2
	3	5.59	0.45	2
	4	5.77	0.62	2
	5	5.94	0.92	2
	6	6.02	1.31	2
	7	6.44	0.75	2
	8	6.66	1.02	2
	9	6.88	0.73	2
	10	7.01	0.5	2
	11	7.01	0.33	2
	12	7.07	0.61	2
	13	7.11	0.48	2
	14	7.15	0.55	2
	15	7.2	0.61	2
	16	7.25	1.12	2
	17	7.37	1.14	2
	18	7.54	1.73	2
	19	7.61	0.75	2
	20	7.65	0.6	2
	21	7.69	0.53	2
	22	7.72	0.54	2
	23	7.74	0.38	2
	24	7.77	0.42	2
	25	7.79	0.46	2
	26	7.82	0.66	2
	27	7.86	0.72	2
	28	7.91	1.05	2
	29	7.96	1.22	2
	30	8.01	1.25	2
	31	8.05	1.23	2
	32	8.08	1.39	2
	33	8.12	1.08	2
	34	8.2	3.69	2
	35	8.28	2.05	2
	36	8.33	2.04	2
	37	8.39	1.84	2
	38	8.39	0.46	2
	39	8.46	1.63	2
	40	8.54	3.65	2
	41	8.62	2.45	2
	42	8.69	2.01	2
	43	8.76	1.79	2
	44	8.84	1.94	2
	45	8.91	1.83	2
	46	8.98	1.74	2
	47	9.04	1.68	2
	48	9.09	1.41	2
	49	9.14	1.47	2
	50	9.17	0.97	2
	51	9.2	0.98	2
	52	9.24	1.07	2
	53	9.26	0.79	2
	54	9.28	0.8	2
	55	9.3	0.81	2
	56	9.33	0.81	2
	57	9.35	0.67	2
	58	9.37	0.65	2
	59	9.39	0.67	2
	60	9.41	0.67	2
	61	9.43	0.81	2
	62	9.46	1.11	2
	63	9.49	1.04	2
	64	9.52	0.97	2
	65	9.57	1.44	2
	66	9.62	1.37	2
	67	9.72	2.15	2
	68	9.84	2.59	2
	69	9.94	1.85	2
	70	10	1.34	2
	71	10.05	0.91	2
	72	10.08	0.4	2
	73	10.08	0.27	2
	74	10.12	0.77	2
	75	10.15	0.74	2
	76	10.18	0.72	2
	77	10.21	0.69	2
	78	10.24	0.75	2
	79	10.27	0.76	2
	80	10.3	0.7	2
	81	10.33	0.65	2
	82	10.38	1.05	2
	83	10.43	0.9	2
	84	10.49	1.25	2
	85	10.55	1.17	2
	86	10.6	0.91	2
	87	10.66	0.81	2
	88	10.71	0.71	2
	89	10.76	0.67	2
	90	10.81	0.63	2
	91	10.86	0.62	2
	92	10.93	0.79	2
	93	11.02	0.89	2
	94	11.15	1.05	2

