File:              	C:\Qtrac\Data\Daniel M Sørensen\MScan multicentre study\Data from centres\Edmonton\MSCC00218F.QZD
Name:              	CA.EDM.NC.4.2
Protocol:          	MSCAN-R2
Date:              	18/2/20
Start time:        	13:39:46
Age:               	59
Sex:               	F
Temperature:       	29.7
S/R sites:         	Ulnar Wr-ADM
NC/disease:        	NC
Operator:          	KJ
Comments:
M-SCAN DATA (6.5-1.5m)
Scanpts: 69, 74, 515, 536
Stim. (mA)     	Amp. (mV)
MS.1           	10.5           	9.442
MS.2           	10.5           	9.452
MS.3           	10.5           	9.473
MS.4           	10.5           	9.481
MS.5           	10.5           	9.475
MS.6           	10.5           	9.493
MS.7           	10.5           	9.483
MS.8           	10.5           	9.503
MS.9           	10.5           	9.497
MS.10          	10.5           	9.471
MS.11          	10.5           	9.499
MS.12          	10.5           	9.489
MS.13          	10.5           	9.521
MS.14          	10.5           	9.507
MS.15          	10.5           	9.553
MS.16          	10.5           	9.555
MS.17          	10.5           	9.555
MS.18          	10.5           	9.549
MS.19          	10.5           	9.565
MS.20          	10.5           	9.573
MS.21          	10.5           	9.604
MS.22          	10.5           	9.614
MS.23          	10.5           	9.612
MS.24          	10.457         	9.577
MS.25          	10.438         	9.589
MS.26          	10.417         	9.602
MS.27          	10.395         	9.579
MS.28          	10.375         	9.599
MS.29          	10.355         	9.608
MS.30          	10.332         	9.597
MS.31          	10.312         	9.612
MS.32          	10.292         	9.602
MS.33          	10.273         	9.595
MS.34          	10.25          	9.616
MS.35          	10.23          	9.599
MS.36          	10.21          	9.626
MS.37          	10.19          	9.604
MS.38          	10.17          	9.652
MS.39          	10.15          	9.64
MS.40          	10.127         	9.616
MS.41          	10.108         	9.656
MS.42          	10.087         	9.654
MS.43          	10.068         	9.628
MS.44          	10.047         	9.648
MS.45          	10.028         	9.622
MS.46          	10.007         	9.652
MS.47          	9.988          	9.646
MS.48          	9.967          	9.644
MS.49          	9.948          	9.652
MS.50          	9.927          	9.618
MS.51          	9.907          	9.62
MS.52          	9.887          	9.62
MS.53          	9.867          	9.628
MS.54          	9.85           	9.624
MS.55          	9.83           	9.614
MS.56          	9.81           	9.604
MS.57          	9.79           	9.632
MS.58          	9.77           	9.624
MS.59          	9.75           	9.646
MS.60          	9.733          	9.61
MS.61          	9.712          	9.66
MS.62          	9.693          	9.646
MS.63          	9.672          	9.628
MS.64          	9.655          	9.662
MS.65          	9.635          	9.662
MS.66          	9.615          	9.67
MS.67          	9.595          	9.674
MS.68          	9.577          	9.652
MS.69          	9.557          	9.672
MS.70          	9.54           	9.656
MS.71          	9.52           	9.698
MS.72          	9.5            	9.672
MS.73          	9.483          	9.682
MS.74          	9.462          	9.674
MS.75          	9.445          	9.668
MS.76          	9.425          	9.68
MS.77          	9.405          	9.628
MS.78          	9.387          	9.682
MS.79          	9.367          	9.648
MS.80          	9.35           	9.648
MS.81          	9.332          	9.688
MS.82          	9.312          	9.646
MS.83          	9.295          	9.694
MS.84          	9.275          	9.686
MS.85          	9.257          	9.622
MS.86          	9.238          	9.606
MS.87          	9.22           	9.676
MS.88          	9.202          	9.61
MS.89          	9.182          	9.628
MS.90          	9.165          	9.65
MS.91          	9.148          	9.672
MS.92          	9.127          	9.654
MS.93          	9.11           	9.64
MS.94          	9.092          	9.628
MS.95          	9.073          	9.606
MS.96          	9.055          	9.668
MS.97          	9.037          	9.638
MS.98          	9.02           	9.63
MS.99          	9.002          	9.652
MS.100         	8.983          	9.692
MS.101         	8.965          	9.626
MS.102         	8.948          	9.543
MS.103         	8.93           	9.648
MS.104         	8.912          	9.638
MS.105         	8.895          	9.64
MS.106         	8.875          	9.64
MS.107         	8.858          	9.614
MS.108         	8.84           	9.632
MS.109         	8.823          	9.571
MS.110         	8.805          	9.575
MS.111         	8.787          	9.62
MS.112         	8.77           	9.648
MS.113         	8.752          	9.565
MS.114         	8.735          	9.591
MS.115         	8.717          	9.555
MS.116         	8.7            	9.591
MS.117         	8.682          	9.63
MS.118         	8.665          	9.557
MS.119         	8.648          	9.551
MS.120         	8.63           	9.511
MS.121         	8.615          	9.569
MS.122         	8.597          	9.539
MS.123         	8.58           	9.545
MS.124         	8.562          	9.561
MS.125         	8.545          	9.579
MS.126         	8.528          	9.547
MS.127         	8.51           	9.517
MS.128         	8.495          	9.525
MS.129         	8.477          	9.563
MS.130         	8.46           	9.553
MS.131         	8.443          	9.549
MS.132         	8.427          	9.539
MS.133         	8.41           	9.543
MS.134         	8.392          	9.523
MS.135         	8.375          	9.487
MS.136         	8.36           	9.541
MS.137         	8.342          	9.517
MS.138         	8.325          	9.533
MS.139         	8.31           	9.523
MS.140         	8.292          	9.499
MS.141         	8.275          	9.499
MS.142         	8.26           	9.507
MS.143         	8.242          	9.497
MS.144         	8.227          	9.38
MS.145         	8.21           	9.458
MS.146         	8.193          	9.515
MS.147         	8.177          	9.497
MS.148         	8.16           	9.503
MS.149         	8.145          	9.485
MS.150         	8.127          	9.392
MS.151         	8.113          	9.503
MS.152         	8.095          	9.36
MS.153         	8.08           	9.525
MS.154         	8.062          	9.38
MS.155         	8.047          	9.35
MS.156         	8.033          	9.279
MS.157         	8.015          	9.265
MS.158         	8              	9.211
MS.159         	7.982          	9.465
MS.160         	7.967          	9.211
MS.161         	7.952          	9.271
MS.162         	7.935          	9.364
MS.163         	7.92           	9.255
MS.164         	7.905          	9.243
MS.165         	7.887          	9.303
MS.166         	7.872          	9.269
MS.167         	7.857          	9.233
MS.168         	7.84           	9.223
MS.169         	7.825          	9.229
MS.170         	7.81           	9.233
MS.171         	7.795          	9.241
MS.172         	7.777          	9.215
MS.173         	7.762          	9.223
MS.174         	7.747          	9.197
MS.175         	7.732          	9.261
MS.176         	7.717          	9.221
MS.177         	7.7            	9.106
MS.178         	7.685          	9.259
MS.179         	7.67           	8.919
MS.180         	7.655          	8.939
MS.181         	7.64           	9.166
MS.182         	7.625          	9.001
MS.183         	7.61           	9.034
MS.184         	7.595          	9.04
MS.185         	7.58           	9.152
MS.186         	7.565          	9.048
MS.187         	7.547          	9.09
MS.188         	7.532          	8.888
MS.189         	7.517          	8.87
MS.190         	7.503          	8.852
MS.191         	7.487          	8.959
MS.192         	7.472          	8.923
MS.193         	7.457          	8.625
MS.194         	7.442          	8.784
MS.195         	7.43           	8.808
MS.196         	7.415          	8.633
MS.197         	7.4            	8.411
MS.198         	7.385          	8.725
MS.199         	7.37           	8.78
MS.200         	7.355          	8.498
MS.201         	7.34           	8.534
MS.202         	7.325          	8.19
MS.203         	7.31           	8.486
MS.204         	7.297          	8.312
MS.205         	7.282          	8.498
MS.206         	7.267          	8.175
MS.207         	7.253          	8.268
MS.208         	7.237          	8.242
MS.209         	7.222          	7.767
MS.210         	7.21           	7.877
MS.211         	7.195          	8.208
MS.212         	7.18           	8.155
MS.213         	7.165          	7.632
MS.214         	7.152          	7.539
MS.215         	7.137          	7.757
MS.216         	7.122          	7.753
MS.217         	7.11           	7.442
MS.218         	7.095          	7.158
MS.219         	7.08           	7.761
MS.220         	7.067          	7.249
MS.221         	7.052          	7.96
MS.222         	7.037          	7.726
MS.223         	7.025          	7.164
MS.224         	7.01           	7.054
MS.225         	6.995          	7.517
MS.226         	6.983          	7.148
MS.227         	6.967          	7.044
MS.228         	6.955          	7.074
MS.229         	6.94           	6.896
MS.230         	6.927          	6.81
MS.231         	6.912          	6.544
MS.232         	6.9            	6.798
MS.233         	6.885          	6.667
MS.234         	6.872          	6.679
MS.235         	6.858          	6.492
MS.236         	6.845          	6.504
MS.237         	6.83           	6.826
MS.238         	6.817          	6.514
MS.239         	6.802          	6.103
MS.240         	6.79           	6.111
MS.241         	6.775          	5.978
MS.242         	6.762          	6.19
MS.243         	6.75           	6.093
MS.244         	6.735          	6.063
MS.245         	6.722          	5.982
MS.246         	6.707          	5.803
MS.247         	6.695          	6.01
MS.248         	6.682          	5.662
MS.249         	6.668          	5.694
MS.250         	6.655          	5.344
MS.251         	6.642          	5.597
MS.252         	6.628          	5.472
MS.253         	6.615          	5.269
MS.254         	6.602          	5.134
MS.255         	6.59           	5.325
MS.256         	6.575          	5.487
MS.257         	6.562          	5.239
MS.258         	6.55           	5.348
MS.259         	6.537          	5.062
MS.260         	6.523          	4.951
MS.261         	6.51           	5.404
MS.262         	6.497          	4.812
MS.263         	6.485          	5.178
MS.264         	6.472          	4.862
MS.265         	6.457          	4.538
MS.266         	6.445          	4.929
MS.267         	6.432          	4.735
MS.268         	6.42           	4.411
MS.269         	6.407          	4.417
MS.270         	6.395          	4.629
MS.271         	6.382          	4.443
MS.272         	6.367          	4.502
MS.273         	6.355          	4.155
MS.274         	6.342          	4.308
MS.275         	6.33           	4.212
MS.276         	6.317          	4.095
MS.277         	6.305          	4.101
MS.278         	6.293          	4.002
MS.279         	6.28           	3.95
MS.280         	6.267          	4.149
MS.281         	6.255          	4.119
MS.282         	6.242          	4.022
MS.283         	6.23           	4.044
MS.284         	6.217          	3.877
MS.285         	6.205          	4.206
MS.286         	6.192          	3.851
MS.287         	6.18           	3.704
MS.288         	6.168          	3.914
MS.289         	6.155          	3.706
MS.290         	6.142          	3.837
MS.291         	6.13           	3.72
MS.292         	6.12           	3.722
MS.293         	6.108          	3.714
MS.294         	6.095          	3.309
MS.295         	6.082          	3.599
MS.296         	6.07           	3.541
MS.297         	6.057          	3.559
MS.298         	6.045          	3.555
MS.299         	6.035          	3.625
MS.300         	6.023          	3.388
MS.301         	6.01           	3.527
MS.302         	5.997          	3.219
MS.303         	5.985          	3.414
MS.304         	5.972          	3.521
MS.305         	5.963          	3.499
MS.306         	5.95           	3.019
MS.307         	5.938          	3.037
MS.308         	5.925          	3.104
MS.309         	5.915          	2.931
MS.310         	5.902          	2.951
MS.311         	5.89           	2.923
MS.312         	5.88           	2.87
MS.313         	5.867          	3.201
MS.314         	5.855          	2.963
MS.315         	5.842          	2.939
MS.316         	5.832          	2.981
MS.317         	5.82           	3.019
MS.318         	5.81           	2.981
MS.319         	5.797          	2.931
MS.320         	5.785          	2.892
MS.321         	5.775          	2.931
MS.322         	5.762          	3.104
MS.323         	5.75           	2.864
MS.324         	5.74           	2.864
MS.325         	5.727          	2.858
MS.326         	5.717          	2.818
MS.327         	5.705          	2.802
MS.328         	5.695          	2.437
MS.329         	5.682          	2.52
MS.330         	5.67           	2.439
MS.331         	5.66           	2.55
MS.332         	5.648          	2.332
MS.333         	5.637          	2.635
MS.334         	5.625          	2.405
MS.335         	5.615          	2.544
MS.336         	5.602          	2.234
MS.337         	5.592          	2.141
MS.338         	5.58           	2.371
MS.339         	5.57           	2.014
MS.340         	5.557          	1.96
MS.341         	5.547          	1.869
MS.342         	5.537          	1.972
MS.343         	5.525          	1.948
MS.344         	5.515          	1.875
MS.345         	5.503          	1.728
MS.346         	5.492          	1.879
MS.347         	5.483          	1.579
MS.348         	5.47           	1.994
MS.349         	5.46           	1.7
MS.350         	5.447          	1.605
MS.351         	5.438          	1.813
MS.352         	5.427          	1.698
MS.353         	5.415          	1.408
MS.354         	5.405          	1.64
MS.355         	5.395          	1.488
MS.356         	5.382          	1.142
MS.357         	5.372          	1.41
MS.358         	5.362          	1.301
MS.359         	5.352          	1.352
MS.360         	5.34           	1.265
MS.361         	5.33           	1.235
MS.362         	5.32           	1.464
MS.363         	5.31           	1.301
MS.364         	5.297          	0.989
MS.365         	5.287          	1.049
MS.366         	5.277          	0.993
MS.367         	5.267          	0.961
MS.368         	5.255          	1.116
MS.369         	5.245          	1.019
MS.370         	5.235          	0.965
MS.371         	5.225          	0.759
MS.372         	5.215          	0.916
MS.373         	5.202          	0.822
MS.374         	5.193          	0.751
MS.375         	5.182          	0.777
MS.376         	5.172          	0.626
MS.377         	5.162          	0.612
MS.378         	5.152          	0.669
MS.379         	5.142          	0.83
MS.380         	5.132          	0.632
MS.381         	5.12           	0.773
MS.382         	5.11           	0.707
MS.383         	5.1            	0.556
MS.384         	5.09           	0.602
MS.385         	5.08           	0.816
MS.386         	5.07           	0.703
MS.387         	5.06           	0.643
MS.388         	5.05           	0.693
MS.389         	5.04           	0.62
MS.390         	5.03           	0.546
MS.391         	5.02           	0.534
MS.392         	5.01           	0.522
MS.393         	5              	0.602
MS.394         	4.99           	0.572
MS.395         	4.98           	0.643
MS.396         	4.97           	0.632
MS.397         	4.96           	0.514
MS.398         	4.95           	0.594
MS.399         	4.94           	0.453
MS.400         	4.93           	0.576
MS.401         	4.92           	0.437
MS.402         	4.91           	0.568
MS.403         	4.9            	0.548
MS.404         	4.89           	0.443
MS.405         	4.88           	0.431
MS.406         	4.872          	0.508
MS.407         	4.862          	0.425
MS.408         	4.852          	0.383
MS.409         	4.842          	0.461
MS.410         	4.832          	0.417
MS.411         	4.822          	0.32
MS.412         	4.812          	0.399
MS.413         	4.802          	0.387
MS.414         	4.795          	0.425
MS.415         	4.785          	0.363
MS.416         	4.775          	0.401
MS.417         	4.765          	0.415
MS.418         	4.755          	0.24
MS.419         	4.747          	0.286
MS.420         	4.737          	0.379
MS.421         	4.727          	0.308
MS.422         	4.717          	0.409
MS.423         	4.707          	0.165
MS.424         	4.7            	0.25
MS.425         	4.69           	0.25
MS.426         	4.68           	0.151
MS.427         	4.67           	0.179
MS.428         	4.662          	0.272
MS.429         	4.652          	0.127
MS.430         	4.642          	0.155
MS.431         	4.635          	0.173
MS.432         	4.625          	0.064
MS.433         	4.615          	0.161
MS.434         	4.605          	0.097
MS.435         	4.597          	0.101
MS.436         	4.588          	0.064
MS.437         	4.577          	0.097
MS.438         	4.57           	0.137
MS.439         	4.56           	0.058
MS.440         	4.55           	0.062
MS.441         	4.543          	0.109
MS.442         	4.532          	0.064
MS.443         	4.525          	0.062
MS.444         	4.515          	0.077
MS.445         	4.505          	0.075
MS.446         	4.497          	0.048
MS.447         	4.487          	0.064
MS.448         	4.48           	0.06
MS.449         	4.47           	0.05
MS.450         	4.46           	0.06
MS.451         	4.452          	0.048
MS.452         	4.443          	0.079
MS.453         	4.435          	0.036
MS.454         	4.425          	0.054
MS.455         	4.418          	0.079
MS.456         	4.407          	0.101
MS.457         	4.4            	0.06
MS.458         	4.39           	0.075
MS.459         	4.382          	0.068
MS.460         	4.372          	0.097
MS.461         	4.365          	0.058
MS.462         	4.355          	0.036
MS.463         	4.347          	0.014
MS.464         	4.338          	0.077
MS.465         	4.33           	0.046
MS.466         	4.32           	0.056
MS.467         	4.312          	0.056
MS.468         	4.302          	0.054
MS.469         	4.295          	0.052
MS.470         	4.285          	0.05
MS.471         	4.277          	0.056
MS.472         	4.27           	0.018
MS.473         	4.26           	0.044
MS.474         	4.253          	0.046
MS.475         	4.242          	0.044
MS.476         	4.235          	0.05
MS.477         	4.227          	0.046
MS.478         	4.217          	0.044
MS.479         	4.21           	0.048
MS.480         	4.2            	0.016
MS.481         	4.193          	0.056
MS.482         	4.185          	0.058
MS.483         	4.175          	0.048
MS.484         	4.168          	0.03
MS.485         	4.16           	0.018
MS.486         	4.15           	0.024
MS.487         	4.142          	0.006
MS.488         	4.135          	0.006
MS.489         	4.128          	0.02
MS.490         	4.117          	0.026
MS.491         	4.11           	0.004
MS.492         	4.102          	0.024
MS.493         	4.092          	0.028
MS.494         	4.085          	0.024
MS.495         	4.077          	0.028
MS.496         	4.07           	0.026
MS.497         	4.06           	0.026
MS.498         	4.052          	0.004
MS.499         	4.045          	0.028
MS.500         	4.037          	0.004
MS.501         	4.027          	0.006
MS.502         	4.02           	0.004
MS.503         	4.012          	0.028
MS.504         	4.005          	0.008
MS.505         	3.997          	0.004
MS.506         	3.987          	0.008
MS.507         	3.98           	0.006
MS.508         	3.972          	0.006
MS.509         	3.965          	0.004
MS.510         	3.957          	0.006
MS.511         	3.947          	0.006
MS.512         	3.94           	0.006
MS.513         	3.932          	0.008
MS.514         	3.925          	0.006
MS.515         	3.918          	0.006
MS.516         	3.91           	0.006
MS.517         	3.902          	0.006
MS.518         	3.892          	0.002
MS.519         	3.885          	0.004
MS.520         	3.877          	0.008
MS.521         	3.87           	0.006
MS.522         	3.862          	0.004
MS.523         	3.855          	0.006
MS.524         	3.847          	0.006
MS.525         	3.84           	0.006
MS.526         	3.832          	0.002
MS.527         	3.825          	0.006
MS.528         	3.817          	0.004
MS.529         	3.81           	0.006
MS.530         	3.803          	0.006
MS.531         	3.795          	0.004
MS.532         	3.785          	0.006
MS.533         	3.777          	0.006
MS.534         	3.77           	0.004
MS.535         	3.762          	0.008
MS.536         	3.755          	0.004
DERIVED EXCITABILITY VARIABLES
Program = QTracP 3/4/2020
Threshold method = 6 (optimised for CAP, using data for present condition only)
SR method = 1 (using actual data values)
6.                 	0.000               	Peak response\(mV)
9.                 	29.7                	Temperature ( C)
17.                	59                  	Age (years)
18.                	2                   	Sex (M=1, F=2)

EXTRA VARIABLES

MScPeak(mV) = 9.51
MScS5(mA) = 4.91
MScS50(mA) = 6.45
MScS95(mA) = 7.62
MScNSteps = 2
MScSteps(%) = 5.2
MScStepMax(%) = 3.2
MScD50 = 46
MScSlope = 4.72
MSFPeakAmp(mV) = 9.67
MSFNUnits = 106
MSFMeanUnitAmp(uV) = 91.2
MSFHuntTime(m) = 2.21
MSFError(%) = 4.78
MSFNLarge = 36.44
MSFMedianAmp(%) = 0.89
MSFMedianAmp(mV) = 0.0861
MSFHalfAmpAmp(%) = 1.02
MSFHalfAmpAmp(mV) = 0.0982
MSFLargestAmp(%) = 2.96
MSFLargestAmp(mV) = 0.286
MSFMeanRS(%) = 2
MSFOpts = 10106121
MScDuration(min) = 5
MSFTraces = 468
MSFSizeLimit(uV) = 24.2
MSFLimitType = 1
MSFSmallestAmp(uV) = 26.2

EXTRA WAVEFORMS


!MScan Model
!106
	1	4.17	0.28	2
	2	4.5	0.42	2
	3	4.57	0.27	2
	4	4.61	0.37	2
	5	4.64	0.44	2
	6	4.67	0.32	2
	7	4.7	0.49	2
	8	4.74	0.5	2
	9	4.79	0.65	2
	10	4.84	0.67	2
	11	4.89	0.55	2
	12	4.95	0.63	2
	13	5.06	1.06	2
	14	5.14	1.02	2
	15	5.19	0.83	2
	16	5.21	0.43	2
	17	5.23	0.7	2
	18	5.25	0.63	2
	19	5.27	0.5	2
	20	5.29	0.63	2
	21	5.31	0.74	2
	22	5.33	0.77	2
	23	5.35	0.85	2
	24	5.38	0.93	2
	25	5.4	0.97	2
	26	5.43	0.85	2
	27	5.45	0.84	2
	28	5.48	0.92	2
	29	5.5	1.06	2
	30	5.52	0.89	2
	31	5.54	0.89	2
	32	5.56	0.79	2
	33	5.58	0.55	2
	34	5.59	0.53	2
	35	5.6	0.6	2
	36	5.62	0.69	2
	37	5.63	2.25	2
	38	5.64	0.83	2
	39	5.66	0.76	2
	40	5.68	0.93	2
	41	5.71	1.22	2
	42	5.76	1.32	2
	43	5.92	0.56	1.6
	44	5.92	0.37	1.6
	45	5.97	1.38	2
	46	6.01	0.99	2
	47	6.06	1.76	2
	48	6.1	1.29	2
	49	6.14	1.03	2
	50	6.18	0.81	2
	51	6.21	0.84	2
	52	6.24	1.04	2
	53	6.28	0.92	2
	54	6.31	0.97	2
	55	6.33	1	2
	56	6.36	0.67	2
	57	6.38	0.9	2
	58	6.4	0.97	2
	59	6.42	0.93	2
	60	6.44	0.93	2
	61	6.47	1.13	2
	62	6.5	1.3	2
	63	6.52	1.16	2
	64	6.55	1.26	2
	65	6.58	1.4	2
	66	6.6	1.06	2
	67	6.63	1.07	2
	68	6.65	1.01	2
	69	6.67	0.64	2
	70	6.68	0.62	2
	71	6.7	0.76	2
	72	6.71	0.8	2
	73	6.73	0.77	2
	74	6.74	0.76	2
	75	6.76	0.7	2
	76	6.77	0.66	2
	77	6.79	0.74	2
	78	6.81	0.75	2
	79	6.82	0.81	2
	80	6.84	0.82	2
	81	6.85	0.78	2
	82	6.88	1.1	2
	83	6.9	1.29	2
	84	6.93	1.44	2
	85	6.97	1.69	2
	86	7.02	1.88	2
	87	7.08	2.43	2
	88	7.14	2.96	2
	89	7.19	1.8	2
	90	7.23	1.5	2
	91	7.26	1.07	2
	92	7.29	1.12	2
	93	7.32	1.25	2
	94	7.36	1.04	2
	95	7.39	1.06	2
	96	7.43	0.94	2
	97	7.49	1.36	2
	98	7.55	1.2	2
	99	7.63	1.22	2
	100	7.74	1.17	2
	101	7.93	1.2	2
	102	8.05	0.9	2
	103	8.19	0.87	2
	104	8.37	0.64	2
	105	8.86	0.46	2
	106	9	0.54	2

