File:              	C:\Qtrac\Data\Daniel M Sørensen\MScan multicentre study\Data from centres\Edmonton\Processed data\MSCC01003B.QZD
Name:              	CA.EDM.NC.8.2
Protocol:          	MSCAN-R2
Date:              	3/10/20
Start time:        	17:52:48
Age:               	44
Sex:               	F
Temperature:       	34.3
S/R sites:         	ADM
NC/disease:        	NC
Operator:          	KJ
Comments:
M-SCAN DATA (11-2.8m)
Scanpts: 174, 181, 744, 773
Stim. (mA)     	Amp. (mV)
MS.1           	18.5           	12.653
MS.2           	18.5           	12.935
MS.3           	18.5           	12.854
MS.4           	18.5           	12.949
MS.5           	18.5           	12.82
MS.6           	18.5           	12.872
MS.7           	18.5           	12.808
MS.8           	18.5           	12.794
MS.9           	18.5           	12.836
MS.10          	18.5           	12.788
MS.11          	18.5           	12.856
MS.12          	18.5           	12.885
MS.13          	18.5           	12.788
MS.14          	18.5           	12.86
MS.15          	18.5           	12.854
MS.16          	18.5           	12.866
MS.17          	18.5           	12.816
MS.18          	18.5           	12.796
MS.19          	18.5           	12.885
MS.20          	18.5           	12.905
MS.21          	18.5           	12.852
MS.22          	18.5           	12.836
MS.23          	18.425         	12.913
MS.24          	18.39          	12.687
MS.25          	18.352         	12.915
MS.26          	18.315         	12.802
MS.27          	18.28          	12.895
MS.28          	18.243         	12.911
MS.29          	18.208         	12.939
MS.30          	18.17          	12.879
MS.31          	18.132         	12.909
MS.32          	18.097         	12.826
MS.33          	18.06          	12.939
MS.34          	18.025         	12.828
MS.35          	17.99          	12.893
MS.36          	17.952         	12.834
MS.37          	17.917         	12.937
MS.38          	17.882         	12.913
MS.39          	17.845         	12.933
MS.40          	17.81          	12.913
MS.41          	17.775         	12.889
MS.42          	17.74          	12.756
MS.43          	17.702         	12.959
MS.44          	17.667         	12.907
MS.45          	17.632         	12.943
MS.46          	17.597         	12.897
MS.47          	17.562         	12.917
MS.48          	17.528         	12.87
MS.49          	17.493         	12.999
MS.50          	17.458         	12.979
MS.51          	17.422         	12.901
MS.52          	17.387         	12.993
MS.53          	17.352         	12.915
MS.54          	17.317         	12.77
MS.55          	17.285         	12.983
MS.56          	17.25          	12.957
MS.57          	17.215         	12.985
MS.58          	17.18          	12.881
MS.59          	17.145         	12.967
MS.60          	17.112         	12.953
MS.61          	17.077         	12.983
MS.62          	17.042         	13.03
MS.63          	17.01          	12.967
MS.64          	16.975         	13.02
MS.65          	16.942         	12.935
MS.66          	16.907         	12.949
MS.67          	16.875         	12.911
MS.68          	16.84          	13.026
MS.69          	16.807         	12.959
MS.70          	16.772         	12.983
MS.71          	16.74          	12.86
MS.72          	16.705         	13.018
MS.73          	16.672         	12.792
MS.74          	16.64          	13.048
MS.75          	16.605         	13.001
MS.76          	16.573         	12.967
MS.77          	16.54          	13.062
MS.78          	16.507         	12.959
MS.79          	16.472         	13.092
MS.80          	16.44          	12.969
MS.81          	16.407         	13.112
MS.82          	16.375         	13.07
MS.83          	16.342         	13.062
MS.84          	16.31          	13.06
MS.85          	16.278         	13.074
MS.86          	16.245         	12.967
MS.87          	16.212         	12.997
MS.88          	16.18          	13.08
MS.89          	16.147         	13.066
MS.90          	16.115         	13.11
MS.91          	16.083         	13.009
MS.92          	16.05          	13.102
MS.93          	16.02          	13.04
MS.94          	15.987         	13.116
MS.95          	15.955         	13.016
MS.96          	15.922         	12.983
MS.97          	15.89          	13.082
MS.98          	15.86          	12.875
MS.99          	15.827         	12.86
MS.100         	15.795         	13.112
MS.101         	15.765         	13.058
MS.102         	15.733         	13.03
MS.103         	15.702         	13.122
MS.104         	15.67          	13.094
MS.105         	15.64          	13.04
MS.106         	15.608         	13.08
MS.107         	15.577         	13.068
MS.108         	15.545         	13.034
MS.109         	15.515         	13.092
MS.110         	15.483         	13.14
MS.111         	15.452         	13.112
MS.112         	15.422         	13.106
MS.113         	15.39          	13.082
MS.114         	15.36          	13.159
MS.115         	15.33          	13.076
MS.116         	15.297         	13.104
MS.117         	15.267         	13.104
MS.118         	15.237         	13.112
MS.119         	15.207         	13.146
MS.120         	15.177         	13.098
MS.121         	15.148         	13.185
MS.122         	15.115         	13.177
MS.123         	15.085         	13.14
MS.124         	15.055         	13.066
MS.125         	15.025         	13.217
MS.126         	14.995         	13.152
MS.127         	14.965         	13.12
MS.128         	14.935         	13.062
MS.129         	14.905         	12.872
MS.130         	14.877         	13.221
MS.131         	14.847         	13.199
MS.132         	14.818         	13.165
MS.133         	14.787         	13.116
MS.134         	14.757         	13.183
MS.135         	14.727         	13.1
MS.136         	14.7           	13.148
MS.137         	14.67          	13.207
MS.138         	14.64          	13.126
MS.139         	14.61          	13.231
MS.140         	14.582         	13.14
MS.141         	14.552         	13.233
MS.142         	14.523         	13.112
MS.143         	14.495         	13.122
MS.144         	14.465         	13.159
MS.145         	14.438         	12.917
MS.146         	14.407         	12.923
MS.147         	14.38          	13.185
MS.148         	14.35          	13.165
MS.149         	14.322         	13.183
MS.150         	14.292         	13.189
MS.151         	14.265         	13.263
MS.152         	14.235         	13.217
MS.153         	14.207         	13.249
MS.154         	14.18          	13.022
MS.155         	14.15          	13.293
MS.156         	14.122         	13.159
MS.157         	14.095         	13.207
MS.158         	14.065         	13.247
MS.159         	14.037         	13.235
MS.160         	14.01          	13.209
MS.161         	13.983         	13.235
MS.162         	13.955         	13.094
MS.163         	13.925         	12.977
MS.164         	13.898         	13.215
MS.165         	13.87          	13.209
MS.166         	13.842         	13.271
MS.167         	13.815         	13.177
MS.168         	13.787         	13.229
MS.169         	13.76          	13.229
MS.170         	13.733         	13.255
MS.171         	13.705         	13.261
MS.172         	13.677         	13.013
MS.173         	13.65          	13.374
MS.174         	13.622         	13.255
MS.175         	13.595         	13.342
MS.176         	13.568         	13.227
MS.177         	13.542         	13.302
MS.178         	13.515         	13.219
MS.179         	13.487         	13.237
MS.180         	13.46          	13.31
MS.181         	13.432         	13.171
MS.182         	13.407         	13.181
MS.183         	13.38          	13.189
MS.184         	13.352         	13.003
MS.185         	13.327         	13.217
MS.186         	13.3           	12.991
MS.187         	13.273         	13.348
MS.188         	13.247         	13.277
MS.189         	13.22          	13.259
MS.190         	13.195         	13.245
MS.191         	13.167         	13.255
MS.192         	13.142         	13.04
MS.193         	13.115         	13.275
MS.194         	13.09          	13.126
MS.195         	13.062         	13.177
MS.196         	13.037         	13.299
MS.197         	13.01          	13.217
MS.198         	12.985         	13.132
MS.199         	12.957         	13.251
MS.200         	12.932         	13.257
MS.201         	12.907         	12.78
MS.202         	12.88          	13.219
MS.203         	12.855         	13.265
MS.204         	12.83          	13.249
MS.205         	12.805         	13.066
MS.206         	12.778         	13.235
MS.207         	12.752         	13.02
MS.208         	12.727         	12.997
MS.209         	12.702         	13.148
MS.210         	12.677         	12.81
MS.211         	12.653         	13.044
MS.212         	12.625         	13.167
MS.213         	12.6           	13.058
MS.214         	12.575         	13.152
MS.215         	12.55          	13.064
MS.216         	12.525         	13.001
MS.217         	12.5           	13.064
MS.218         	12.475         	13.088
MS.219         	12.45          	13.132
MS.220         	12.425         	13.042
MS.221         	12.4           	13.074
MS.222         	12.375         	13.076
MS.223         	12.352         	13.199
MS.224         	12.327         	13.032
MS.225         	12.302         	13.237
MS.226         	12.278         	13.046
MS.227         	12.252         	13.082
MS.228         	12.227         	13.054
MS.229         	12.205         	13.022
MS.230         	12.18          	12.979
MS.231         	12.155         	13.14
MS.232         	12.13          	13.082
MS.233         	12.108         	13.102
MS.234         	12.082         	12.8
MS.235         	12.057         	12.895
MS.236         	12.035         	13.034
MS.237         	12.01          	12.877
MS.238         	11.988         	12.961
MS.239         	11.962         	13.048
MS.240         	11.938         	12.796
MS.241         	11.915         	13.146
MS.242         	11.89          	13.054
MS.243         	11.867         	13.167
MS.244         	11.842         	13.124
MS.245         	11.82          	12.794
MS.246         	11.795         	12.852
MS.247         	11.773         	12.776
MS.248         	11.75          	12.957
MS.249         	11.725         	12.806
MS.250         	11.702         	13.058
MS.251         	11.677         	13.098
MS.252         	11.655         	13.142
MS.253         	11.632         	12.881
MS.254         	11.61          	12.792
MS.255         	11.585         	13.114
MS.256         	11.562         	13.076
MS.257         	11.54          	12.877
MS.258         	11.517         	13.14
MS.259         	11.492         	13.007
MS.260         	11.47          	13.068
MS.261         	11.447         	12.949
MS.262         	11.425         	12.818
MS.263         	11.403         	12.985
MS.264         	11.38          	12.995
MS.265         	11.355         	12.881
MS.266         	11.332         	12.993
MS.267         	11.31          	12.756
MS.268         	11.287         	12.883
MS.269         	11.265         	12.967
MS.270         	11.242         	12.911
MS.271         	11.22          	12.816
MS.272         	11.197         	13.009
MS.273         	11.175         	13.078
MS.274         	11.153         	12.566
MS.275         	11.132         	12.635
MS.276         	11.11          	12.623
MS.277         	11.087         	12.87
MS.278         	11.065         	12.727
MS.279         	11.042         	12.651
MS.280         	11.02          	12.822
MS.281         	10.997         	12.697
MS.282         	10.977         	12.383
MS.283         	10.955         	12.516
MS.284         	10.932         	12.506
MS.285         	10.91          	12.528
MS.286         	10.89          	12.603
MS.287         	10.867         	12.699
MS.288         	10.845         	12.673
MS.289         	10.825         	12.685
MS.290         	10.802         	12.351
MS.291         	10.78          	12.631
MS.292         	10.76          	12.709
MS.293         	10.738         	12.667
MS.294         	10.717         	12.812
MS.295         	10.695         	12.623
MS.296         	10.672         	12.568
MS.297         	10.653         	12.522
MS.298         	10.63          	12.744
MS.299         	10.61          	12.474
MS.300         	10.587         	12.566
MS.301         	10.568         	12.536
MS.302         	10.545         	12.298
MS.303         	10.525         	12.379
MS.304         	10.505         	12.359
MS.305         	10.483         	12.437
MS.306         	10.462         	12.46
MS.307         	10.443         	12.576
MS.308         	10.42          	12.351
MS.309         	10.4           	12.353
MS.310         	10.38          	12.512
MS.311         	10.358         	12.433
MS.312         	10.337         	12.502
MS.313         	10.318         	12.635
MS.314         	10.295         	12.264
MS.315         	10.275         	12.526
MS.316         	10.255         	12.47
MS.317         	10.235         	12.23
MS.318         	10.215         	12.188
MS.319         	10.193         	12.466
MS.320         	10.172         	12.25
MS.321         	10.153         	12.202
MS.322         	10.132         	12.425
MS.323         	10.113         	12.466
MS.324         	10.092         	12.347
MS.325         	10.073         	12.337
MS.326         	10.052         	12.337
MS.327         	10.032         	12.363
MS.328         	10.012         	12.345
MS.329         	9.992          	12.367
MS.330         	9.972          	12.385
MS.331         	9.952          	12.448
MS.332         	9.932          	12.331
MS.333         	9.912          	12.385
MS.334         	9.892          	12.427
MS.335         	9.872          	12.194
MS.336         	9.852          	12.57
MS.337         	9.832          	12.28
MS.338         	9.812          	12.307
MS.339         	9.795          	12.166
MS.340         	9.775          	12.22
MS.341         	9.755          	12.445
MS.342         	9.735          	12.214
MS.343         	9.715          	12.387
MS.344         	9.698          	12.29
MS.345         	9.677          	12.339
MS.346         	9.657          	12.143
MS.347         	9.637          	12.572
MS.348         	9.62           	12.296
MS.349         	9.6            	12.327
MS.350         	9.58           	12.548
MS.351         	9.562          	12.373
MS.352         	9.542          	12.182
MS.353         	9.523          	12.462
MS.354         	9.505          	12.117
MS.355         	9.485          	12.172
MS.356         	9.467          	12.172
MS.357         	9.448          	12.5
MS.358         	9.43           	12.204
MS.359         	9.41           	12.292
MS.360         	9.39           	12.18
MS.361         	9.372          	12.107
MS.362         	9.352          	12.099
MS.363         	9.335          	12.069
MS.364         	9.318          	12.111
MS.365         	9.297          	12.063
MS.366         	9.28           	12.075
MS.367         	9.26           	12.077
MS.368         	9.242          	11.92
MS.369         	9.222          	12.109
MS.370         	9.205          	11.861
MS.371         	9.188          	12.059
MS.372         	9.167          	12.107
MS.373         	9.15           	12.333
MS.374         	9.132          	11.841
MS.375         	9.113          	11.734
MS.376         	9.095          	11.817
MS.377         	9.077          	11.755
MS.378         	9.06           	11.831
MS.379         	9.04           	11.779
MS.380         	9.023          	12.027
MS.381         	9.005          	11.726
MS.382         	8.988          	11.888
MS.383         	8.97           	11.827
MS.384         	8.95           	11.652
MS.385         	8.932          	11.734
MS.386         	8.915          	11.563
MS.387         	8.898          	11.543
MS.388         	8.88           	11.551
MS.389         	8.863          	11.668
MS.390         	8.845          	11.614
MS.391         	8.827          	11.644
MS.392         	8.81           	11.557
MS.393         	8.792          	11.346
MS.394         	8.775          	11.36
MS.395         	8.755          	11.243
MS.396         	8.74           	11.326
MS.397         	8.722          	11.517
MS.398         	8.705          	11.535
MS.399         	8.688          	11.193
MS.400         	8.67           	11.094
MS.401         	8.653          	11.459
MS.402         	8.635          	11.036
MS.403         	8.617          	11.366
MS.404         	8.6            	11.173
MS.405         	8.582          	11.219
MS.406         	8.565          	11.231
MS.407         	8.547          	11.102
MS.408         	8.533          	10.899
MS.409         	8.515          	11.046
MS.410         	8.497          	11.189
MS.411         	8.48           	10.973
MS.412         	8.462          	10.987
MS.413         	8.448          	10.854
MS.414         	8.43           	11.12
MS.415         	8.412          	10.496
MS.416         	8.395          	9.831
MS.417         	8.38           	10.673
MS.418         	8.363          	10.897
MS.419         	8.345          	10.864
MS.420         	8.33           	10.208
MS.421         	8.312          	10.552
MS.422         	8.295          	10.2
MS.423         	8.28           	9.875
MS.424         	8.262          	9.027
MS.425         	8.247          	10.105
MS.426         	8.23           	9.398
MS.427         	8.212          	9.247
MS.428         	8.198          	10.308
MS.429         	8.18           	8.858
MS.430         	8.165          	9.225
MS.431         	8.148          	8.905
MS.432         	8.132          	9.054
MS.433         	8.115          	8.76
MS.434         	8.1            	9.253
MS.435         	8.082          	8.721
MS.436         	8.068          	9.364
MS.437         	8.05           	8.84
MS.438         	8.035          	8.75
MS.439         	8.017          	8.391
MS.440         	8.002          	7.96
MS.441         	7.987          	7.65
MS.442         	7.97           	8.276
MS.443         	7.955          	7.559
MS.444         	7.94           	8.222
MS.445         	7.922          	8.107
MS.446         	7.907          	8.228
MS.447         	7.892          	7.599
MS.448         	7.875          	7.624
MS.449         	7.86           	7.597
MS.450         	7.845          	7.547
MS.451         	7.827          	7.289
MS.452         	7.812          	7.221
MS.453         	7.797          	7.521
MS.454         	7.782          	7.414
MS.455         	7.765          	7.102
MS.456         	7.75           	7.261
MS.457         	7.735          	7.267
MS.458         	7.72           	7.781
MS.459         	7.705          	7.033
MS.460         	7.69           	7.716
MS.461         	7.672          	7.07
MS.462         	7.657          	7.243
MS.463         	7.642          	7.144
MS.464         	7.628          	6.933
MS.465         	7.612          	6.949
MS.466         	7.597          	7.168
MS.467         	7.582          	6.939
MS.468         	7.567          	7.146
MS.469         	7.552          	6.713
MS.470         	7.537          	6.721
MS.471         	7.523          	6.717
MS.472         	7.507          	6.826
MS.473         	7.492          	6.717
MS.474         	7.477          	6.76
MS.475         	7.462          	6.484
MS.476         	7.447          	6.683
MS.477         	7.432          	6.22
MS.478         	7.418          	6.471
MS.479         	7.402          	6.693
MS.480         	7.387          	6.826
MS.481         	7.372          	6.115
MS.482         	7.357          	6.314
MS.483         	7.342          	5.887
MS.484         	7.327          	6.034
MS.485         	7.315          	5.885
MS.486         	7.3            	6.324
MS.487         	7.285          	6.258
MS.488         	7.27           	5.92
MS.489         	7.255          	5.982
MS.490         	7.24           	5.873
MS.491         	7.227          	5.831
MS.492         	7.212          	5.94
MS.493         	7.197          	5.982
MS.494         	7.182          	5.724
MS.495         	7.17           	5.688
MS.496         	7.155          	5.914
MS.497         	7.14           	6.409
MS.498         	7.125          	5.609
MS.499         	7.112          	5.35
MS.500         	7.097          	5.18
MS.501         	7.082          	5.052
MS.502         	7.07           	5.245
MS.503         	7.055          	5.136
MS.504         	7.04           	5.654
MS.505         	7.027          	5.37
MS.506         	7.012          	5.124
MS.507         	7              	5.45
MS.508         	6.985          	5.265
MS.509         	6.97           	4.828
MS.510         	6.957          	5.205
MS.511         	6.942          	5.015
MS.512         	6.93           	5.06
MS.513         	6.915          	5.146
MS.514         	6.902          	5.001
MS.515         	6.887          	4.727
MS.516         	6.875          	5.132
MS.517         	6.86           	4.983
MS.518         	6.847          	4.834
MS.519         	6.832          	4.703
MS.520         	6.82           	4.389
MS.521         	6.805          	5.037
MS.522         	6.793          	4.449
MS.523         	6.777          	4.439
MS.524         	6.765          	4.32
MS.525         	6.753          	4.673
MS.526         	6.737          	3.803
MS.527         	6.725          	4.766
MS.528         	6.71           	4.171
MS.529         	6.697          	3.883
MS.530         	6.685          	4.204
MS.531         	6.67           	3.988
MS.532         	6.657          	3.728
MS.533         	6.645          	3.795
MS.534         	6.63           	4.099
MS.535         	6.617          	4.522
MS.536         	6.605          	3.66
MS.537         	6.592          	3.549
MS.538         	6.577          	3.543
MS.539         	6.565          	3.662
MS.540         	6.552          	3.613
MS.541         	6.54           	3.493
MS.542         	6.525          	3.559
MS.543         	6.512          	3.652
MS.544         	6.5            	3.426
MS.545         	6.487          	3.257
MS.546         	6.475          	3.045
MS.547         	6.46           	3.267
MS.548         	6.447          	3.005
MS.549         	6.435          	3.039
MS.550         	6.422          	3.035
MS.551         	6.41           	2.999
MS.552         	6.398          	2.83
MS.553         	6.385          	2.886
MS.554         	6.37           	2.657
MS.555         	6.358          	2.616
MS.556         	6.345          	2.872
MS.557         	6.332          	2.792
MS.558         	6.32           	2.753
MS.559         	6.307          	2.59
MS.560         	6.295          	2.679
MS.561         	6.282          	2.522
MS.562         	6.27           	2.024
MS.563         	6.257          	2.419
MS.564         	6.245          	2.453
MS.565         	6.233          	2.349
MS.566         	6.22           	1.857
MS.567         	6.207          	1.732
MS.568         	6.195          	2.242
MS.569         	6.182          	2.298
MS.570         	6.17           	2.107
MS.571         	6.157          	2.163
MS.572         	6.145          	1.791
MS.573         	6.132          	1.799
MS.574         	6.122          	2.248
MS.575         	6.11           	2.097
MS.576         	6.097          	1.422
MS.577         	6.085          	1.589
MS.578         	6.072          	1.434
MS.579         	6.06           	1.239
MS.580         	6.047          	1.251
MS.581         	6.035          	1.466
MS.582         	6.025          	1.225
MS.583         	6.012          	1.011
MS.584         	6              	1.146
MS.585         	5.987          	1.136
MS.586         	5.975          	1.027
MS.587         	5.965          	1.126
MS.588         	5.952          	1.021
MS.589         	5.94           	1.122
MS.590         	5.927          	1.019
MS.591         	5.918          	0.763
MS.592         	5.905          	1.033
MS.593         	5.892          	0.933
MS.594         	5.88           	1.033
MS.595         	5.87           	0.806
MS.596         	5.858          	0.802
MS.597         	5.845          	0.594
MS.598         	5.835          	0.58
MS.599         	5.822          	0.618
MS.600         	5.81           	0.675
MS.601         	5.8            	0.622
MS.602         	5.787          	0.516
MS.603         	5.777          	0.56
MS.604         	5.765          	0.671
MS.605         	5.753          	0.638
MS.606         	5.742          	0.423
MS.607         	5.73           	0.546
MS.608         	5.72           	0.542
MS.609         	5.707          	0.455
MS.610         	5.695          	0.415
MS.611         	5.685          	0.576
MS.612         	5.672          	0.415
MS.613         	5.662          	0.407
MS.614         	5.65           	0.359
MS.615         	5.64           	0.389
MS.616         	5.628          	0.411
MS.617         	5.617          	0.352
MS.618         	5.605          	0.435
MS.619         	5.595          	0.415
MS.620         	5.582          	0.354
MS.621         	5.572          	0.397
MS.622         	5.56           	0.357
MS.623         	5.55           	0.35
MS.624         	5.537          	0.354
MS.625         	5.527          	0.365
MS.626         	5.517          	0.35
MS.627         	5.505          	0.332
MS.628         	5.495          	0.336
MS.629         	5.483          	0.346
MS.630         	5.472          	0.334
MS.631         	5.463          	0.32
MS.632         	5.45           	0.318
MS.633         	5.44           	0.32
MS.634         	5.43           	0.31
MS.635         	5.418          	0.28
MS.636         	5.407          	0.32
MS.637         	5.398          	0.308
MS.638         	5.385          	0.29
MS.639         	5.375          	0.278
MS.640         	5.365          	0.308
MS.641         	5.352          	0.187
MS.642         	5.342          	0.298
MS.643         	5.332          	0.314
MS.644         	5.322          	0.292
MS.645         	5.31           	0.27
MS.646         	5.3            	0.258
MS.647         	5.29           	0.181
MS.648         	5.28           	0.187
MS.649         	5.267          	0.199
MS.650         	5.257          	0.193
MS.651         	5.247          	0.266
MS.652         	5.237          	0.254
MS.653         	5.227          	0.272
MS.654         	5.215          	0.207
MS.655         	5.205          	0.187
MS.656         	5.195          	0.149
MS.657         	5.185          	0.171
MS.658         	5.175          	0.143
MS.659         	5.165          	0.258
MS.660         	5.155          	0.234
MS.661         	5.142          	0.159
MS.662         	5.132          	0.141
MS.663         	5.122          	0.068
MS.664         	5.112          	0.207
MS.665         	5.102          	0.137
MS.666         	5.092          	0.185
MS.667         	5.082          	0.214
MS.668         	5.072          	0.093
MS.669         	5.062          	0.137
MS.670         	5.052          	0.191
MS.671         	5.043          	0.191
MS.672         	5.032          	0.091
MS.673         	5.023          	0.089
MS.674         	5.012          	0.097
MS.675         	5.003          	0.091
MS.676         	4.992          	0.087
MS.677         	4.983          	0.062
MS.678         	4.972          	0.066
MS.679         	4.963          	0.07
MS.680         	4.952          	0.06
MS.681         	4.943          	0.036
MS.682         	4.932          	0.068
MS.683         	4.922          	0.052
MS.684         	4.912          	0.044
MS.685         	4.902          	0.058
MS.686         	4.892          	0.052
MS.687         	4.882          	0.048
MS.688         	4.872          	0.038
MS.689         	4.862          	0.034
MS.690         	4.855          	0.028
MS.691         	4.845          	0.085
MS.692         	4.835          	0.03
MS.693         	4.825          	0.054
MS.694         	4.815          	0.022
MS.695         	4.805          	0.028
MS.696         	4.795          	0.02
MS.697         	4.787          	0.022
MS.698         	4.777          	0.018
MS.699         	4.767          	0.012
MS.700         	4.757          	0.02
MS.701         	4.747          	0.016
MS.702         	4.737          	0.018
MS.703         	4.73           	0.008
MS.704         	4.72           	0.042
MS.705         	4.71           	0.022
MS.706         	4.7            	0.02
MS.707         	4.693          	0.014
MS.708         	4.682          	0.014
MS.709         	4.673          	0.016
MS.710         	4.662          	0.03
MS.711         	4.655          	0.012
MS.712         	4.645          	0.018
MS.713         	4.635          	0.02
MS.714         	4.628          	0.014
MS.715         	4.617          	0.018
MS.716         	4.608          	0.016
MS.717         	4.597          	0.018
MS.718         	4.59           	0.016
MS.719         	4.58           	0.014
MS.720         	4.57           	0.014
MS.721         	4.562          	0.014
MS.722         	4.552          	0.012
MS.723         	4.545          	0.022
MS.724         	4.535          	0.016
MS.725         	4.525          	0.02
MS.726         	4.517          	0.022
MS.727         	4.507          	0.016
MS.728         	4.497          	0.02
MS.729         	4.49           	0.016
MS.730         	4.48           	0.02
MS.731         	4.472          	0.012
MS.732         	4.463          	0.018
MS.733         	4.455          	0.022
MS.734         	4.445          	0.018
MS.735         	4.435          	0.016
MS.736         	4.427          	0.016
MS.737         	4.418          	0.02
MS.738         	4.41           	0.018
MS.739         	4.4            	0.018
MS.740         	4.392          	0.026
MS.741         	4.382          	0.022
MS.742         	4.375          	0.018
MS.743         	4.365          	0.018
MS.744         	4.358          	0.012
MS.745         	4.347          	0.018
MS.746         	4.34           	0.018
MS.747         	4.33           	0.016
MS.748         	4.322          	0.018
MS.749         	4.312          	0.018
MS.750         	4.305          	0.02
MS.751         	4.298          	0.02
MS.752         	4.287          	0.018
MS.753         	4.28           	0.018
MS.754         	4.27           	0.016
MS.755         	4.262          	0.012
MS.756         	4.253          	0.01
MS.757         	4.245          	0.016
MS.758         	4.237          	0.022
MS.759         	4.227          	0.012
MS.760         	4.22           	0.008
MS.761         	4.213          	0.014
MS.762         	4.202          	0.016
MS.763         	4.195          	0.004
MS.764         	4.185          	0.018
MS.765         	4.177          	0.012
MS.766         	4.17           	0.012
MS.767         	4.16           	0.012
MS.768         	4.152          	0.014
MS.769         	4.145          	0.018
MS.770         	4.135          	0.012
MS.771         	4.128          	0.018
MS.772         	4.12           	0.016
MS.773         	4.112          	0.016
MS.774         	4.102          	0.012
MS.775         	4.095          	0.02
MS.776         	4.088          	0.008
MS.777         	4.077          	0.014
MS.778         	4.07           	0.014
MS.779         	4.062          	0.012
MS.780         	4.055          	0.016
MS.781         	4.045          	0.014
MS.782         	4.037          	0.022
MS.783         	4.03           	0.012
MS.784         	4.023          	0.01
MS.785         	4.015          	0.012
MS.786         	4.005          	0.008
MS.787         	3.997          	0.012
MS.788         	3.99           	0.016
MS.789         	3.982          	0.016
MS.790         	3.975          	0.02
MS.791         	3.965          	0.016
MS.792         	3.957          	0.014
MS.793         	3.95           	0.016
MS.794         	3.942          	0.014
MS.795         	3.935          	0.014
MS.796         	3.928          	0.014
MS.797         	3.918          	0.016
MS.798         	3.91           	0.016
MS.799         	3.902          	0.02
MS.800         	3.895          	0.012
MS.801         	3.887          	0.012
MS.802         	3.88           	0.014
MS.803         	3.872          	0.012
MS.804         	3.865          	0.014
MS.805         	3.857          	0.012
MS.806         	3.85           	0.018
MS.807         	3.84           	0.016
MS.808         	3.832          	0.016
MS.809         	3.825          	0.012
MS.810         	3.817          	0.016
MS.811         	3.81           	0.01
MS.812         	3.803          	0.016
MS.813         	3.795          	0.016
MS.814         	3.787          	0.014
MS.815         	3.78           	0.018
MS.816         	3.772          	0.016
MS.817         	3.765          	0.018
MS.818         	3.757          	0.01
MS.819         	3.75           	0.016
MS.820         	3.742          	0.016
MS.821         	3.735          	0.006
MS.822         	3.727          	0.01
MS.823         	3.72           	0.014
MS.824         	3.712          	0.014
MS.825         	3.705          	0.014
MS.826         	3.697          	0.014
MS.827         	3.69           	0.01
MS.828         	3.682          	0.014
MS.829         	3.675          	0.016
MS.830         	3.668          	0.016
MS.831         	3.66           	0.008
MS.832         	3.655          	0.014
MS.833         	3.647          	0.014
MS.834         	3.64           	0.012
MS.835         	3.632          	0.016
MS.836         	3.625          	0.014
MS.837         	3.617          	0.008
MS.838         	3.61           	0.016
MS.839         	3.602          	0.018
MS.840         	3.595          	0.012
MS.841         	3.587          	0.012
MS.842         	3.582          	0.016
MS.843         	3.575          	0.014
MS.844         	3.567          	0.018
MS.845         	3.56           	0.01
MS.846         	3.553          	0.014
MS.847         	3.545          	0.014
MS.848         	3.537          	0.012
MS.849         	3.533          	0.014
MS.850         	3.525          	0.014
MS.851         	3.517          	0.014
MS.852         	3.51           	0.012
MS.853         	3.502          	0.008
MS.854         	3.497          	0.012
MS.855         	3.49           	0.012
MS.856         	3.482          	0.014
MS.857         	3.475          	0.014
MS.858         	3.467          	0.008
MS.859         	3.462          	0.014
MS.860         	3.455          	0.01
MS.861         	3.447          	0.016
MS.862         	3.44           	0.016
DERIVED EXCITABILITY VARIABLES
Program = QTracP 3/4/2020
Threshold method = 6 (optimised for CAP, using data for present condition only)
SR method = 1 (using actual data values)
6.                 	0.000               	Peak response\(mV)
9.                 	34.3                	Temperature ( C)
17.                	44                  	Age (years)
18.                	2                   	Sex (M=1, F=2)

EXTRA VARIABLES

MScPeak(mV) = 12.83
MScS5(mA) = 5.8
MScS50(mA) = 7.41
MScS95(mA) = 9.51
MScNSteps = 1
MScSteps(%) = 2.6
MScStepMax(%) = 2.6
MScD50 = 51
MScSlope = 4.2
MSFPeakAmp(mV) = 13.2
MSFNUnits = 84
MSFMeanUnitAmp(uV) = 157.7
MSFHuntTime(m) = 4.25
MSFError(%) = 5.2
MSFNLarge = 22.14
MSFMedianAmp(%) = 1
MSFMedianAmp(mV) = 0.133
MSFHalfAmpAmp(%) = 1.6
MSFHalfAmpAmp(mV) = 0.212
MSFLargestAmp(%) = 3.83
MSFLargestAmp(mV) = 0.508
MSFMeanRS(%) = 2.01
MSFOpts = 10106121
MScDuration(min) = 8.2
MSFTraces = 600
MSFSizeLimit(uV) = 33.1
MSFLimitType = 1
MSFSmallestAmp(uV) = 37.2

EXTRA WAVEFORMS


!MScan Model
!84
	1	4.79	0.6	2.88
	2	5.11	0.54	2
	3	5.23	0.34	2
	4	5.33	0.45	2
	5	5.41	0.28	2
	6	5.52	0.39	2
	7	5.61	0.31	2
	8	5.66	0.36	2
	9	5.71	0.47	2
	10	5.76	0.37	2
	11	5.78	0.52	2
	12	5.8	0.72	2
	13	5.81	0.43	2
	14	5.83	0.33	2
	15	5.85	0.48	2
	16	5.89	0.61	2
	17	5.92	0.58	2
	18	5.98	1.45	2
	19	6	0.33	2
	20	6.02	1	2
	21	6.05	0.63	2
	22	6.08	0.89	2
	23	6.1	0.76	2
	24	6.14	1.35	2
	25	6.19	2.23	2
	26	6.24	1.4	2
	27	6.28	0.97	2
	28	6.3	0.76	2
	29	6.33	0.86	2
	30	6.35	0.55	2
	31	6.36	0.35	2
	32	6.38	1.04	2
	33	6.4	0.38	2
	34	6.41	0.47	2
	35	6.43	0.42	2
	36	6.45	0.54	2
	37	6.46	0.31	2
	38	6.47	0.29	2
	39	6.49	0.69	2
	40	6.52	1.08	2
	41	6.57	1.7	2
	42	6.65	2.28	2
	43	6.71	1.66	2
	44	6.76	1.66	2
	45	6.8	1.61	2
	46	6.85	1.21	2
	47	6.91	1.59	2
	48	7.04	2.2	2
	49	7.12	2.48	2
	50	7.25	3.26	2
	51	7.3	1.12	2
	52	7.36	1.17	2
	53	7.41	0.93	2
	54	7.45	1	2
	55	7.49	1.01	2
	56	7.53	0.87	2
	57	7.58	1.39	2
	58	7.7	2.12	2
	59	7.82	2.01	2
	60	7.88	1.45	2
	61	7.93	1.6	2
	62	7.97	2.17	2
	63	8.01	2.14	2
	64	8.06	1.32	2
	65	8.14	3.83	2
	66	8.15	3.4	2
	67	8.19	1.84	2
	68	8.24	2.4	2
	69	8.3	2.71	2
	70	8.37	2.63	2
	71	8.63	2.11	2
	72	8.72	1.14	2
	73	8.78	0.72	2
	74	8.84	0.6	2
	75	8.88	0.51	2
	76	8.92	0.58	2
	77	9.07	1.54	2
	78	9.3	1.12	2
	79	9.43	1.5	2
	80	10.49	1.48	2
	81	10.98	1.66	2
	82	11.09	1.23	2
	83	12.05	1.68	2
	84	12.83	0.81	2

