File:              	C:\Qtrac\Data\Daniel M Sørensen\MScan multicentre study\Data from centres\Edmonton\Processed data\MSCC00925B.QZD
Name:              	CA.EDM.NC.8.1
Protocol:          	MSCAN-R2
Date:              	25/9/20
Start time:        	19:54:05
Age:               	44
Sex:               	F
Temperature:       	34.0
S/R sites:         	ADM
NC/disease:        	NC
Operator:          	KJ
Comments:
M-SCAN DATA (5.8-1.3m)
Scanpts: 30, 35, 473, 495
Stim. (mA)     	Amp. (mV)
MS.1           	14.5           	12.738
MS.2           	14.5           	12.77
MS.3           	14.5           	12.74
MS.4           	14.5           	12.679
MS.5           	14.5           	12.687
MS.6           	14.5           	12.671
MS.7           	14.5           	12.693
MS.8           	14.5           	12.679
MS.9           	14.5           	12.663
MS.10          	14.5           	12.649
MS.11          	14.5           	12.681
MS.12          	14.5           	12.681
MS.13          	14.5           	12.734
MS.14          	14.5           	12.693
MS.15          	14.5           	12.693
MS.16          	14.5           	12.717
MS.17          	14.5           	12.683
MS.18          	14.5           	12.697
MS.19          	14.5           	12.679
MS.20          	14.5           	12.673
MS.21          	14.5           	12.659
MS.22          	14.5           	12.673
MS.23          	14.5           	12.703
MS.24          	14.443         	12.687
MS.25          	14.412         	12.663
MS.26          	14.385         	12.701
MS.27          	14.355         	12.699
MS.28          	14.327         	12.685
MS.29          	14.297         	12.671
MS.30          	14.27          	12.693
MS.31          	14.242         	12.695
MS.32          	14.212         	12.713
MS.33          	14.185         	12.723
MS.34          	14.155         	12.673
MS.35          	14.127         	12.687
MS.36          	14.1           	12.703
MS.37          	14.072         	12.703
MS.38          	14.042         	12.699
MS.39          	14.015         	12.727
MS.40          	13.987         	12.736
MS.41          	13.96          	12.697
MS.42          	13.932         	12.697
MS.43          	13.903         	12.685
MS.44          	13.875         	12.675
MS.45          	13.847         	12.667
MS.46          	13.82          	12.645
MS.47          	13.792         	12.703
MS.48          	13.765         	12.713
MS.49          	13.737         	12.655
MS.50          	13.71          	12.601
MS.51          	13.682         	12.734
MS.52          	13.655         	12.77
MS.53          	13.627         	12.707
MS.54          	13.6           	12.711
MS.55          	13.575         	12.711
MS.56          	13.547         	12.671
MS.57          	13.52          	12.603
MS.58          	13.492         	12.623
MS.59          	13.465         	12.613
MS.60          	13.44          	12.681
MS.61          	13.412         	12.552
MS.62          	13.385         	12.637
MS.63          	13.358         	12.639
MS.64          	13.332         	12.649
MS.65          	13.305         	12.425
MS.66          	13.278         	12.623
MS.67          	13.252         	12.633
MS.68          	13.225         	12.607
MS.69          	13.2           	12.413
MS.70          	13.172         	12.578
MS.71          	13.148         	12.526
MS.72          	13.12          	12.504
MS.73          	13.095         	12.431
MS.74          	13.068         	12.512
MS.75          	13.042         	12.427
MS.76          	13.015         	12.357
MS.77          	12.99          	12.365
MS.78          	12.962         	12.343
MS.79          	12.938         	12.341
MS.80          	12.912         	12.347
MS.81          	12.885         	12.296
MS.82          	12.86          	12.383
MS.83          	12.835         	12.343
MS.84          	12.81          	12.325
MS.85          	12.782         	12.435
MS.86          	12.757         	12.367
MS.87          	12.733         	12.26
MS.88          	12.707         	12.268
MS.89          	12.682         	12.262
MS.90          	12.655         	12.26
MS.91          	12.63          	12.236
MS.92          	12.605         	12.252
MS.93          	12.58          	12.25
MS.94          	12.555         	12.252
MS.95          	12.53          	12.276
MS.96          	12.505         	12.21
MS.97          	12.48          	12.266
MS.98          	12.455         	12.28
MS.99          	12.43          	12.204
MS.100         	12.405         	12.248
MS.101         	12.38          	12.252
MS.102         	12.355         	12.192
MS.103         	12.332         	12.206
MS.104         	12.307         	12.188
MS.105         	12.282         	12.135
MS.106         	12.257         	12.204
MS.107         	12.233         	12.226
MS.108         	12.207         	12.153
MS.109         	12.185         	12.182
MS.110         	12.16          	12.174
MS.111         	12.135         	12.168
MS.112         	12.113         	12.151
MS.113         	12.087         	12.153
MS.114         	12.062         	12.057
MS.115         	12.04          	12.091
MS.116         	12.015         	12.147
MS.117         	11.99          	12.147
MS.118         	11.967         	12.182
MS.119         	11.943         	12.045
MS.120         	11.92          	12.125
MS.121         	11.895         	12.063
MS.122         	11.872         	12.095
MS.123         	11.847         	12.014
MS.124         	11.825         	11.918
MS.125         	11.8           	11.996
MS.126         	11.778         	12.004
MS.127         	11.752         	12.01
MS.128         	11.73          	11.956
MS.129         	11.707         	11.944
MS.130         	11.682         	12.029
MS.131         	11.66          	11.984
MS.132         	11.637         	11.948
MS.133         	11.613         	11.93
MS.134         	11.59          	11.964
MS.135         	11.568         	11.984
MS.136         	11.545         	11.93
MS.137         	11.52          	11.886
MS.138         	11.497         	11.924
MS.139         	11.475         	11.815
MS.140         	11.452         	11.873
MS.141         	11.43          	11.88
MS.142         	11.405         	11.406
MS.143         	11.382         	11.888
MS.144         	11.36          	11.795
MS.145         	11.337         	11.718
MS.146         	11.315         	11.73
MS.147         	11.292         	11.849
MS.148         	11.27          	11.499
MS.149         	11.247         	11.527
MS.150         	11.225         	11.706
MS.151         	11.202         	11.537
MS.152         	11.18          	11.642
MS.153         	11.157         	11.209
MS.154         	11.135         	11.539
MS.155         	11.113         	11.414
MS.156         	11.09          	11.1
MS.157         	11.07          	11.116
MS.158         	11.047         	11.195
MS.159         	11.025         	11.32
MS.160         	11.002         	11.191
MS.161         	10.98          	10.852
MS.162         	10.96          	11.128
MS.163         	10.938         	11.495
MS.164         	10.915         	11.015
MS.165         	10.892         	10.947
MS.166         	10.872         	10.923
MS.167         	10.85          	11.032
MS.168         	10.827         	10.935
MS.169         	10.807         	10.917
MS.170         	10.785         	10.995
MS.171         	10.762         	11.013
MS.172         	10.742         	10.806
MS.173         	10.72          	10.901
MS.174         	10.7           	10.49
MS.175         	10.677         	10.613
MS.176         	10.655         	10.449
MS.177         	10.635         	10.496
MS.178         	10.613         	10.335
MS.179         	10.592         	10.746
MS.180         	10.573         	10.47
MS.181         	10.55          	10.393
MS.182         	10.53          	10.395
MS.183         	10.507         	10.441
MS.184         	10.488         	10.22
MS.185         	10.465         	10.268
MS.186         	10.445         	10.21
MS.187         	10.425         	10.248
MS.188         	10.403         	10.151
MS.189         	10.382         	10.087
MS.190         	10.363         	9.936
MS.191         	10.342         	9.225
MS.192         	10.32          	10.091
MS.193         	10.3           	10.131
MS.194         	10.28          	9.227
MS.195         	10.26          	9.271
MS.196         	10.238         	9.334
MS.197         	10.217         	9.364
MS.198         	10.198         	9.807
MS.199         	10.177         	9.825
MS.200         	10.157         	9.952
MS.201         	10.137         	9.346
MS.202         	10.117         	9.017
MS.203         	10.095         	8.743
MS.204         	10.075         	8.858
MS.205         	10.055         	8.792
MS.206         	10.035         	8.709
MS.207         	10.015         	8.409
MS.208         	9.995          	8.828
MS.209         	9.975          	9.487
MS.210         	9.955          	8.208
MS.211         	9.935          	8.316
MS.212         	9.915          	8.47
MS.213         	9.895          	8.067
MS.214         	9.877          	7.69
MS.215         	9.858          	8.123
MS.216         	9.837          	7.916
MS.217         	9.818          	8.47
MS.218         	9.797          	7.797
MS.219         	9.778          	7.517
MS.220         	9.757          	7.263
MS.221         	9.74           	7.646
MS.222         	9.72           	7.376
MS.223         	9.7            	7.638
MS.224         	9.68           	7.035
MS.225         	9.662          	6.896
MS.226         	9.642          	7.37
MS.227         	9.622          	6.939
MS.228         	9.602          	6.731
MS.229         	9.585          	6.84
MS.230         	9.565          	7.037
MS.231         	9.545          	6.604
MS.232         	9.528          	7.025
MS.233         	9.507          	6.657
MS.234         	9.49           	6.576
MS.235         	9.47           	6.59
MS.236         	9.45           	6.84
MS.237         	9.432          	6.465
MS.238         	9.412          	6.469
MS.239         	9.395          	6.625
MS.240         	9.375          	5.928
MS.241         	9.358          	5.942
MS.242         	9.337          	6.202
MS.243         	9.32           	6.008
MS.244         	9.3            	5.76
MS.245         	9.283          	5.982
MS.246         	9.265          	5.968
MS.247         	9.245          	5.904
MS.248         	9.227          	5.773
MS.249         	9.207          	5.164
MS.250         	9.19           	5.738
MS.251         	9.172          	5.164
MS.252         	9.153          	5.801
MS.253         	9.135          	4.969
MS.254         	9.117          	5.162
MS.255         	9.1            	5.374
MS.256         	9.08           	5.247
MS.257         	9.062          	5.613
MS.258         	9.045          	4.419
MS.259         	9.028          	4.671
MS.260         	9.007          	4.069
MS.261         	8.99           	4.679
MS.262         	8.972          	4.183
MS.263         	8.955          	4.063
MS.264         	8.938          	4.179
MS.265         	8.917          	3.591
MS.266         	8.9            	4.165
MS.267         	8.882          	4.117
MS.268         	8.865          	3.893
MS.269         	8.847          	4.087
MS.270         	8.83           	3.533
MS.271         	8.812          	3.315
MS.272         	8.795          	3.446
MS.273         	8.778          	3.615
MS.274         	8.76           	3.039
MS.275         	8.742          	2.977
MS.276         	8.725          	2.921
MS.277         	8.707          	2.973
MS.278         	8.69           	3.17
MS.279         	8.672          	3.118
MS.280         	8.655          	2.9
MS.281         	8.637          	2.641
MS.282         	8.62           	2.937
MS.283         	8.602          	2.707
MS.284         	8.585          	2.522
MS.285         	8.57           	2.643
MS.286         	8.552          	2.687
MS.287         	8.535          	2.645
MS.288         	8.517          	2.729
MS.289         	8.5            	2.502
MS.290         	8.483          	2.54
MS.291         	8.467          	2.671
MS.292         	8.45           	2.409
MS.293         	8.432          	2.421
MS.294         	8.415          	2.274
MS.295         	8.4            	2.411
MS.296         	8.382          	2.224
MS.297         	8.365          	2.21
MS.298         	8.35           	2.193
MS.299         	8.332          	2.014
MS.300         	8.315          	2.407
MS.301         	8.3            	2.252
MS.302         	8.283          	2.109
MS.303         	8.265          	2.038
MS.304         	8.25           	1.962
MS.305         	8.233          	2.121
MS.306         	8.217          	1.764
MS.307         	8.2            	1.839
MS.308         	8.182          	1.946
MS.309         	8.167          	1.521
MS.310         	8.15           	1.549
MS.311         	8.135          	1.732
MS.312         	8.117          	1.45
MS.313         	8.102          	1.565
MS.314         	8.085          	1.658
MS.315         	8.07           	1.134
MS.316         	8.055          	1.285
MS.317         	8.037          	1.4
MS.318         	8.023          	1.347
MS.319         	8.005          	1.116
MS.320         	7.99           	1.128
MS.321         	7.972          	1.404
MS.322         	7.957          	1.08
MS.323         	7.942          	0.993
MS.324         	7.925          	1.211
MS.325         	7.91           	1.18
MS.326         	7.895          	0.983
MS.327         	7.878          	0.864
MS.328         	7.862          	0.914
MS.329         	7.847          	0.876
MS.330         	7.832          	0.884
MS.331         	7.815          	1.027
MS.332         	7.8            	0.898
MS.333         	7.785          	0.802
MS.334         	7.77           	0.842
MS.335         	7.753          	0.826
MS.336         	7.737          	0.822
MS.337         	7.722          	0.775
MS.338         	7.707          	0.723
MS.339         	7.692          	0.709
MS.340         	7.677          	0.584
MS.341         	7.66           	0.667
MS.342         	7.645          	0.808
MS.343         	7.63           	0.707
MS.344         	7.615          	0.564
MS.345         	7.6            	0.632
MS.346         	7.585          	0.61
MS.347         	7.57           	0.636
MS.348         	7.555          	0.647
MS.349         	7.54           	0.538
MS.350         	7.525          	0.556
MS.351         	7.51           	0.574
MS.352         	7.495          	0.475
MS.353         	7.48           	0.564
MS.354         	7.465          	0.497
MS.355         	7.45           	0.473
MS.356         	7.435          	0.544
MS.357         	7.42           	0.556
MS.358         	7.405          	0.532
MS.359         	7.39           	0.508
MS.360         	7.375          	0.395
MS.361         	7.36           	0.481
MS.362         	7.345          	0.429
MS.363         	7.33           	0.367
MS.364         	7.317          	0.425
MS.365         	7.302          	0.318
MS.366         	7.287          	0.423
MS.367         	7.273          	0.451
MS.368         	7.257          	0.258
MS.369         	7.245          	0.332
MS.370         	7.23           	0.31
MS.371         	7.215          	0.312
MS.372         	7.2            	0.33
MS.373         	7.185          	0.25
MS.374         	7.172          	0.242
MS.375         	7.157          	0.236
MS.376         	7.142          	0.246
MS.377         	7.13           	0.282
MS.378         	7.115          	0.242
MS.379         	7.1            	0.33
MS.380         	7.085          	0.234
MS.381         	7.072          	0.328
MS.382         	7.057          	0.222
MS.383         	7.045          	0.185
MS.384         	7.03           	0.288
MS.385         	7.015          	0.248
MS.386         	7.003          	0.191
MS.387         	6.987          	0.185
MS.388         	6.972          	0.163
MS.389         	6.96           	0.171
MS.390         	6.945          	0.161
MS.391         	6.932          	0.133
MS.392         	6.918          	0.179
MS.393         	6.905          	0.139
MS.394         	6.89           	0.183
MS.395         	6.878          	0.149
MS.396         	6.862          	0.145
MS.397         	6.85           	0.151
MS.398         	6.835          	0.159
MS.399         	6.822          	0.113
MS.400         	6.807          	0.139
MS.401         	6.795          	0.141
MS.402         	6.78           	0.121
MS.403         	6.767          	0.135
MS.404         	6.755          	0.151
MS.405         	6.74           	0.115
MS.406         	6.727          	0.099
MS.407         	6.712          	0.107
MS.408         	6.7            	0.117
MS.409         	6.688          	0.113
MS.410         	6.672          	0.099
MS.411         	6.66           	0.095
MS.412         	6.648          	0.099
MS.413         	6.632          	0.113
MS.414         	6.62           	0.095
MS.415         	6.608          	0.091
MS.416         	6.595          	0.089
MS.417         	6.58           	0.095
MS.418         	6.567          	0.093
MS.419         	6.555          	0.095
MS.420         	6.543          	0.119
MS.421         	6.527          	0.099
MS.422         	6.515          	0.093
MS.423         	6.503          	0.091
MS.424         	6.49           	0.093
MS.425         	6.477          	0.095
MS.426         	6.462          	0.087
MS.427         	6.45           	0.095
MS.428         	6.438          	0.095
MS.429         	6.425          	0.095
MS.430         	6.412          	0.095
MS.431         	6.4            	0.091
MS.432         	6.385          	0.095
MS.433         	6.372          	0.089
MS.434         	6.36           	0.089
MS.435         	6.347          	0.091
MS.436         	6.335          	0.091
MS.437         	6.322          	0.089
MS.438         	6.31           	0.093
MS.439         	6.297          	0.091
MS.440         	6.285          	0.091
MS.441         	6.273          	0.091
MS.442         	6.26           	0.093
MS.443         	6.247          	0.091
MS.444         	6.235          	0.089
MS.445         	6.222          	0.095
MS.446         	6.21           	0.089
MS.447         	6.197          	0.091
MS.448         	6.185          	0.091
MS.449         	6.172          	0.089
MS.450         	6.16           	0.089
MS.451         	6.148          	0.093
MS.452         	6.135          	0.077
MS.453         	6.122          	0.089
MS.454         	6.112          	0.089
MS.455         	6.1            	0.087
MS.456         	6.088          	0.095
MS.457         	6.075          	0.087
MS.458         	6.062          	0.083
MS.459         	6.05           	0.081
MS.460         	6.037          	0.083
MS.461         	6.027          	0.081
MS.462         	6.015          	0.081
MS.463         	6.003          	0.083
MS.464         	5.99           	0.083
MS.465         	5.977          	0.087
MS.466         	5.967          	0.083
MS.467         	5.955          	0.083
MS.468         	5.942          	0.085
MS.469         	5.93           	0.077
MS.470         	5.92           	0.077
MS.471         	5.907          	0.083
MS.472         	5.895          	0.077
MS.473         	5.882          	0.085
MS.474         	5.872          	0.081
MS.475         	5.86           	0.085
MS.476         	5.847          	0.081
MS.477         	5.838          	0.079
MS.478         	5.825          	0.079
MS.479         	5.812          	0.077
MS.480         	5.802          	0.075
MS.481         	5.79           	0.075
MS.482         	5.777          	0.075
MS.483         	5.767          	0.079
MS.484         	5.755          	0.075
MS.485         	5.745          	0.075
MS.486         	5.733          	0.073
MS.487         	5.72           	0.073
MS.488         	5.71           	0.075
MS.489         	5.697          	0.075
MS.490         	5.688          	0.073
MS.491         	5.675          	0.077
MS.492         	5.665          	0.07
MS.493         	5.652          	0.075
MS.494         	5.642          	0.073
MS.495         	5.63           	0.075
DERIVED EXCITABILITY VARIABLES
Program = QTracP 3/4/2020
Threshold method = 6 (optimised for CAP, using data for present condition only)
SR method = 1 (using actual data values)
6.                 	0.000               	Peak response\(mV)
9.                 	34                  	Temperature ( C)
17.                	44                  	Age (years)
18.                	2                   	Sex (M=1, F=2)

EXTRA VARIABLES

MScPeak(mV) = 12.62
MScS5(mA) = 7.61
MScS50(mA) = 9.39
MScS95(mA) = 11.75
MScNSteps = 3
MScSteps(%) = 6.8
MScStepMax(%) = 2.5
MScD50 = 40
MScSlope = 6.39
MSFPeakAmp(mV) = 12.6
MSFNUnits = 109
MSFMeanUnitAmp(uV) = 115.8
MSFHuntTime(m) = 2.32
MSFError(%) = 4.51
MSFNLarge = 28.6
MSFMedianAmp(%) = 0.749
MSFMedianAmp(mV) = 0.0945
MSFHalfAmpAmp(%) = 1.09
MSFHalfAmpAmp(mV) = 0.137
MSFLargestAmp(%) = 5.31
MSFLargestAmp(mV) = 0.671
MSFMeanRS(%) = 2
MSFOpts = 10106121
MScDuration(min) = 4.5
MSFTraces = 466
MSFSizeLimit(uV) = 31.6
MSFLimitType = 1
MSFSmallestAmp(uV) = 32.5

EXTRA WAVEFORMS


!MScan Model
!109
	1	6.8	0.28	2
	2	6.99	0.68	2
	3	7.12	0.5	2
	4	7.21	0.31	2
	5	7.28	0.43	2
	6	7.32	0.32	2
	7	7.35	0.31	2
	8	7.44	0.54	2
	9	7.49	0.34	2
	10	7.56	0.31	2
	11	7.59	0.3	2
	12	7.63	0.35	2
	13	7.7	0.54	2
	14	7.73	0.33	2
	15	7.79	0.53	2
	16	7.83	0.51	2
	17	7.88	0.73	2
	18	7.94	0.7	2
	19	7.99	1.08	2
	20	8.03	0.84	2
	21	8.05	0.38	2
	22	8.08	0.34	2
	23	8.1	0.55	2
	24	8.12	0.58	2
	25	8.14	0.5	2
	26	8.16	0.46	2
	27	8.18	0.54	2
	28	8.2	0.73	2
	29	8.23	0.67	2
	30	8.25	0.32	2
	31	8.28	0.59	2
	32	8.31	0.94	2
	33	8.35	0.75	2
	34	8.38	0.47	2
	35	8.41	0.42	2
	36	8.44	0.5	2
	37	8.48	0.66	2
	38	8.52	0.62	2
	39	8.57	0.79	2
	40	8.62	0.9	2
	41	8.65	0.47	2
	42	8.68	0.71	2
	43	8.71	0.79	2
	44	8.74	0.94	2
	45	8.77	1.31	2
	46	8.8	1.09	2
	47	8.83	1.22	2
	48	8.87	1.28	2
	49	8.9	1.4	2
	50	8.94	2.1	2
	51	8.97	1.61	2.4
	52	9	0.73	2
	53	9.03	0.92	2
	54	9.06	1.84	2
	55	9.11	1.43	2
	56	9.11	0.95	2
	57	9.15	1.64	2
	58	9.21	1.96	2
	59	9.25	1.03	2
	60	9.28	0.97	2
	61	9.31	1.26	2
	62	9.34	0.98	2
	63	9.36	0.8	2
	64	9.39	0.59	2
	65	9.42	0.91	2
	66	9.49	1.83	2
	67	9.54	1.2	2
	68	9.58	1.01	2
	69	9.62	0.88	2
	70	9.65	0.76	2
	71	9.68	1.01	2
	72	9.7	1.09	2
	73	9.74	1.22	2
	74	9.77	0.77	2
	75	9.82	1.52	2
	76	9.88	2.34	2
	77	9.93	2.08	2
	78	9.99	1.75	2
	79	10.1	3.98	2
	80	10.29	5.31	2
	81	10.37	1.16	2
	82	10.43	1.35	2
	83	10.48	1.35	2
	84	10.53	0.73	2
	85	10.57	0.62	2
	86	10.61	0.76	2
	87	10.65	0.78	2
	88	10.7	0.57	2
	89	10.76	0.86	2
	90	10.9	1.9	2
	91	11.03	1.39	2
	92	11.08	0.77	2
	93	11.13	0.5	2
	94	11.17	0.64	2
	95	11.29	1.51	2
	96	11.43	1.29	2
	97	11.53	0.4	1.6
	98	11.69	0.82	2
	99	11.85	0.52	2
	100	11.93	0.26	2
	101	12.12	0.6	2
	102	12.31	0.5	2
	103	12.79	0.34	2
	104	12.92	0.38	2
	105	13	0.41	2
	106	13.09	0.28	2
	107	13.13	0.5	2
	108	13.24	0.78	2
	109	13.49	0.68	2

