File:              	C:\Qtrac\Data\Daniel M Sørensen\MScan multicentre study\Data from centres\Edmonton\MSCC00205B.QZD
Name:              	CA.EDM.NC.3.1
Protocol:          	MSCAN-R2
Date:              	5/2/20
Start time:        	09:52:01
Age:               	47
Sex:               	M
Temperature:       	34.9
S/R sites:         	Ulnar Wr-ADM
NC/disease:        	NC
Operator:          	KJ
Comments:
M-SCAN DATA (6.7-2.2m)
Scanpts: 54, 57, 472, 494
Stim. (mA)     	Amp. (mV)
MS.1           	26.5           	10.107
MS.2           	26.5           	10.143
MS.3           	26.5           	10.135
MS.4           	26.5           	10.2
MS.5           	26.5           	10.047
MS.6           	26.5           	10.057
MS.7           	26.5           	10.055
MS.8           	26.5           	10.101
MS.9           	26.5           	10.107
MS.10          	26.5           	10.133
MS.11          	26.5           	10.123
MS.12          	26.5           	10.059
MS.13          	26.5           	10.097
MS.14          	26.5           	10.087
MS.15          	26.5           	10.077
MS.16          	26.5           	10.055
MS.17          	26.5           	10.103
MS.18          	26.5           	10.113
MS.19          	26.5           	10.131
MS.20          	26.5           	10.228
MS.21          	26.5           	10.135
MS.22          	26.5           	10.147
MS.23          	26.5           	10.258
MS.24          	26.395         	10.071
MS.25          	26.342         	10.049
MS.26          	26.287         	10.089
MS.27          	26.235         	10.099
MS.28          	26.185         	10.109
MS.29          	26.132         	10.149
MS.30          	26.08          	10.081
MS.31          	26.028         	10.123
MS.32          	25.975         	10.099
MS.33          	25.922         	10.117
MS.34          	25.872         	10.151
MS.35          	25.82          	10.139
MS.36          	25.767         	10.093
MS.37          	25.717         	10.129
MS.38          	25.665         	10.083
MS.39          	25.615         	10.135
MS.40          	25.562         	10.174
MS.41          	25.512         	10.111
MS.42          	25.46          	10.093
MS.43          	25.41          	10.147
MS.44          	25.36          	10.163
MS.45          	25.307         	10.155
MS.46          	25.257         	10.135
MS.47          	25.207         	10.153
MS.48          	25.157         	10.196
MS.49          	25.108         	10.176
MS.50          	25.057         	10.127
MS.51          	25.007         	10.133
MS.52          	24.957         	10.172
MS.53          	24.907         	10.188
MS.54          	24.858         	10.159
MS.55          	24.807         	10.155
MS.56          	24.757         	10.2
MS.57          	24.707         	10.188
MS.58          	24.66          	10.123
MS.59          	24.61          	10.135
MS.60          	24.56          	10.176
MS.61          	24.512         	10.099
MS.62          	24.462         	10.043
MS.63          	24.413         	10.113
MS.64          	24.365         	9.992
MS.65          	24.315         	10.075
MS.66          	24.267         	10.033
MS.67          	24.22          	10.061
MS.68          	24.17          	10.111
MS.69          	24.122         	10.083
MS.70          	24.075         	9.942
MS.71          	24.025         	9.968
MS.72          	23.977         	9.896
MS.73          	23.93          	9.964
MS.74          	23.882         	9.877
MS.75          	23.835         	9.888
MS.76          	23.788         	9.859
MS.77          	23.74          	9.986
MS.78          	23.692         	9.9
MS.79          	23.645         	9.89
MS.80          	23.597         	9.869
MS.81          	23.55          	9.904
MS.82          	23.502         	9.863
MS.83          	23.457         	9.888
MS.84          	23.41          	9.875
MS.85          	23.362         	9.902
MS.86          	23.315         	9.847
MS.87          	23.27          	9.803
MS.88          	23.222         	9.875
MS.89          	23.177         	9.847
MS.90          	23.13          	9.883
MS.91          	23.085         	9.827
MS.92          	23.038         	9.879
MS.93          	22.993         	9.879
MS.94          	22.945         	9.845
MS.95          	22.9           	9.839
MS.96          	22.855         	9.892
MS.97          	22.807         	9.825
MS.98          	22.762         	9.902
MS.99          	22.717         	9.841
MS.100         	22.672         	9.898
MS.101         	22.627         	9.881
MS.102         	22.582         	9.837
MS.103         	22.538         	9.898
MS.104         	22.493         	9.896
MS.105         	22.448         	9.948
MS.106         	22.403         	9.914
MS.107         	22.358         	9.896
MS.108         	22.312         	9.855
MS.109         	22.267         	9.849
MS.110         	22.222         	9.938
MS.111         	22.18          	9.926
MS.112         	22.135         	9.801
MS.113         	22.09          	9.936
MS.114         	22.045         	9.91
MS.115         	22.002         	9.902
MS.116         	21.958         	9.928
MS.117         	21.915         	9.865
MS.118         	21.87          	9.871
MS.119         	21.827         	9.912
MS.120         	21.782         	9.954
MS.121         	21.74          	9.94
MS.122         	21.698         	9.9
MS.123         	21.653         	9.879
MS.124         	21.61          	9.898
MS.125         	21.567         	9.89
MS.126         	21.522         	9.801
MS.127         	21.48          	9.871
MS.128         	21.438         	9.9
MS.129         	21.395         	9.833
MS.130         	21.352         	9.916
MS.131         	21.31          	9.875
MS.132         	21.267         	9.875
MS.133         	21.225         	9.845
MS.134         	21.182         	9.702
MS.135         	21.14          	9.767
MS.136         	21.097         	9.66
MS.137         	21.055         	9.819
MS.138         	21.012         	9.686
MS.139         	20.97          	9.809
MS.140         	20.93          	9.481
MS.141         	20.887         	9.575
MS.142         	20.845         	9.521
MS.143         	20.805         	9.634
MS.144         	20.762         	9.795
MS.145         	20.72          	9.591
MS.146         	20.68          	9.777
MS.147         	20.637         	9.587
MS.148         	20.597         	9.827
MS.149         	20.555         	9.529
MS.150         	20.515         	9.684
MS.151         	20.472         	9.386
MS.152         	20.432         	9.676
MS.153         	20.392         	9.789
MS.154         	20.35          	9.477
MS.155         	20.31          	9.426
MS.156         	20.27          	9.358
MS.157         	20.23          	9.193
MS.158         	20.19          	9.285
MS.159         	20.147         	9.41
MS.160         	20.108         	9.372
MS.161         	20.067         	9.273
MS.162         	20.028         	9.307
MS.163         	19.987         	8.854
MS.164         	19.948         	8.455
MS.165         	19.907         	8.925
MS.166         	19.868         	9.269
MS.167         	19.83          	8.472
MS.168         	19.79          	8.923
MS.169         	19.75          	8.478
MS.170         	19.71          	8.816
MS.171         	19.67          	8.472
MS.172         	19.632         	8.85
MS.173         	19.592         	8.482
MS.174         	19.552         	8.415
MS.175         	19.515         	8.461
MS.176         	19.475         	8.752
MS.177         	19.438         	8.508
MS.178         	19.397         	8.419
MS.179         	19.358         	8.772
MS.180         	19.32          	8.371
MS.181         	19.282         	8.5
MS.182         	19.243         	8.417
MS.183         	19.205         	8.423
MS.184         	19.165         	8.333
MS.185         	19.127         	8.329
MS.186         	19.09          	8.25
MS.187         	19.052         	8.361
MS.188         	19.012         	8.228
MS.189         	18.975         	8.186
MS.190         	18.938         	8.155
MS.191         	18.9           	8.425
MS.192         	18.862         	8.085
MS.193         	18.825         	8.202
MS.194         	18.788         	8.308
MS.195         	18.75          	8.141
MS.196         	18.712         	8.24
MS.197         	18.675         	7.986
MS.198         	18.637         	7.891
MS.199         	18.6           	8.057
MS.200         	18.562         	7.94
MS.201         	18.525         	7.891
MS.202         	18.487         	8.063
MS.203         	18.452         	7.865
MS.204         	18.415         	7.847
MS.205         	18.378         	7.946
MS.206         	18.34          	7.648
MS.207         	18.305         	7.813
MS.208         	18.267         	7.521
MS.209         	18.233         	7.346
MS.210         	18.195         	7.148
MS.211         	18.157         	7.334
MS.212         	18.122         	7.326
MS.213         	18.085         	7.344
MS.214         	18.05          	7.35
MS.215         	18.015         	7.205
MS.216         	17.977         	7.221
MS.217         	17.942         	7.001
MS.218         	17.905         	7.162
MS.219         	17.87          	6.995
MS.220         	17.835         	7.122
MS.221         	17.8           	6.991
MS.222         	17.762         	7.064
MS.223         	17.727         	6.999
MS.224         	17.692         	6.753
MS.225         	17.657         	6.739
MS.226         	17.622         	6.691
MS.227         	17.587         	6.842
MS.228         	17.552         	6.625
MS.229         	17.517         	6.59
MS.230         	17.483         	6.373
MS.231         	17.448         	6.808
MS.232         	17.413         	6.661
MS.233         	17.378         	6.697
MS.234         	17.342         	6.655
MS.235         	17.307         	6.449
MS.236         	17.272         	6.568
MS.237         	17.237         	6.371
MS.238         	17.205         	6.564
MS.239         	17.17          	6.367
MS.240         	17.135         	6.29
MS.241         	17.1           	6.202
MS.242         	17.067         	6.343
MS.243         	17.032         	6.345
MS.244         	17             	5.954
MS.245         	16.965         	6.246
MS.246         	16.93          	5.914
MS.247         	16.897         	6.077
MS.248         	16.862         	5.346
MS.249         	16.83          	5.924
MS.250         	16.795         	6.105
MS.251         	16.762         	5.899
MS.252         	16.73          	5.706
MS.253         	16.695         	4.768
MS.254         	16.663         	5.265
MS.255         	16.63          	5.323
MS.256         	16.595         	5.487
MS.257         	16.562         	4.977
MS.258         	16.53          	4.981
MS.259         	16.497         	5.259
MS.260         	16.462         	4.683
MS.261         	16.43          	4.375
MS.262         	16.397         	4.687
MS.263         	16.365         	4.715
MS.264         	16.333         	4.175
MS.265         	16.3           	4.391
MS.266         	16.267         	4.431
MS.267         	16.235         	4.502
MS.268         	16.202         	3.849
MS.269         	16.17          	3.926
MS.270         	16.137         	3.73
MS.271         	16.105         	4.01
MS.272         	16.073         	3.845
MS.273         	16.04          	3.501
MS.274         	16.01          	3.464
MS.275         	15.977         	3.605
MS.276         	15.945         	3.424
MS.277         	15.912         	3.489
MS.278         	15.882         	3.348
MS.279         	15.85          	3.229
MS.280         	15.818         	3.245
MS.281         	15.787         	3.217
MS.282         	15.755         	3.305
MS.283         	15.722         	2.967
MS.284         	15.693         	3.122
MS.285         	15.66          	3.279
MS.286         	15.63          	3.029
MS.287         	15.597         	2.967
MS.288         	15.568         	3.104
MS.289         	15.535         	3.015
MS.290         	15.505         	2.872
MS.291         	15.472         	2.935
MS.292         	15.443         	2.955
MS.293         	15.412         	2.862
MS.294         	15.38          	2.858
MS.295         	15.35          	2.806
MS.296         	15.32          	2.782
MS.297         	15.29          	2.508
MS.298         	15.257         	2.759
MS.299         	15.227         	2.455
MS.300         	15.197         	2.633
MS.301         	15.167         	2.703
MS.302         	15.137         	2.715
MS.303         	15.108         	2.296
MS.304         	15.077         	2.338
MS.305         	15.047         	2.411
MS.306         	15.017         	2.32
MS.307         	14.987         	2.3
MS.308         	14.957         	2.131
MS.309         	14.927         	2.195
MS.310         	14.898         	2.014
MS.311         	14.867         	2.139
MS.312         	14.837         	2.238
MS.313         	14.807         	2.097
MS.314         	14.777         	2.143
MS.315         	14.747         	2.032
MS.316         	14.72          	1.793
MS.317         	14.69          	1.797
MS.318         	14.66          	1.976
MS.319         	14.63          	1.857
MS.320         	14.602         	1.869
MS.321         	14.572         	1.803
MS.322         	14.542         	1.849
MS.323         	14.515         	1.825
MS.324         	14.485         	1.664
MS.325         	14.457         	1.658
MS.326         	14.427         	1.519
MS.327         	14.398         	1.335
MS.328         	14.37          	1.529
MS.329         	14.342         	1.434
MS.330         	14.312         	1.184
MS.331         	14.285         	1.416
MS.332         	14.255         	1.366
MS.333         	14.227         	1.311
MS.334         	14.197         	1.152
MS.335         	14.17          	1.386
MS.336         	14.142         	1.076
MS.337         	14.112         	1.196
MS.338         	14.085         	1.374
MS.339         	14.057         	1.108
MS.340         	14.03          	0.959
MS.341         	14             	1.096
MS.342         	13.972         	1.112
MS.343         	13.945         	1.086
MS.344         	13.917         	1.094
MS.345         	13.89          	0.918
MS.346         	13.862         	1.192
MS.347         	13.835         	0.924
MS.348         	13.807         	1.041
MS.349         	13.78          	0.749
MS.350         	13.752         	0.908
MS.351         	13.725         	0.983
MS.352         	13.697         	0.89
MS.353         	13.67          	0.794
MS.354         	13.642         	0.826
MS.355         	13.615         	0.898
MS.356         	13.587         	0.727
MS.357         	13.56          	0.729
MS.358         	13.532         	0.598
MS.359         	13.505         	0.786
MS.360         	13.48          	0.669
MS.361         	13.452         	0.542
MS.362         	13.425         	0.665
MS.363         	13.398         	0.56
MS.364         	13.372         	0.558
MS.365         	13.345         	0.556
MS.366         	13.318         	0.634
MS.367         	13.292         	0.574
MS.368         	13.265         	0.522
MS.369         	13.237         	0.661
MS.370         	13.212         	0.568
MS.371         	13.185         	0.431
MS.372         	13.16          	0.528
MS.373         	13.132         	0.604
MS.374         	13.108         	0.479
MS.375         	13.08          	0.397
MS.376         	13.055         	0.435
MS.377         	13.028         	0.489
MS.378         	13.002         	0.669
MS.379         	12.977         	0.395
MS.380         	12.95          	0.429
MS.381         	12.925         	0.497
MS.382         	12.9           	0.397
MS.383         	12.872         	0.407
MS.384         	12.847         	0.415
MS.385         	12.822         	0.359
MS.386         	12.795         	0.447
MS.387         	12.77          	0.332
MS.388         	12.745         	0.407
MS.389         	12.72          	0.377
MS.390         	12.695         	0.365
MS.391         	12.67          	0.274
MS.392         	12.642         	0.33
MS.393         	12.617         	0.306
MS.394         	12.592         	0.214
MS.395         	12.568         	0.312
MS.396         	12.542         	0.322
MS.397         	12.517         	0.334
MS.398         	12.492         	0.357
MS.399         	12.467         	0.209
MS.400         	12.443         	0.189
MS.401         	12.417         	0.193
MS.402         	12.392         	0.216
MS.403         	12.367         	0.183
MS.404         	12.342         	0.185
MS.405         	12.32          	0.183
MS.406         	12.295         	0.193
MS.407         	12.27          	0.193
MS.408         	12.245         	0.181
MS.409         	12.22          	0.185
MS.410         	12.197         	0.185
MS.411         	12.172         	0.193
MS.412         	12.148         	0.187
MS.413         	12.122         	0.103
MS.414         	12.1           	0.119
MS.415         	12.075         	0.189
MS.416         	12.05          	0.111
MS.417         	12.028         	0.193
MS.418         	12.002         	0.111
MS.419         	11.98          	0.183
MS.420         	11.955         	0.151
MS.421         	11.93          	0.133
MS.422         	11.907         	0.115
MS.423         	11.882         	0.173
MS.424         	11.86          	0.101
MS.425         	11.835         	0.087
MS.426         	11.812         	0.137
MS.427         	11.787         	0.109
MS.428         	11.765         	0.087
MS.429         	11.742         	0.101
MS.430         	11.717         	0.113
MS.431         	11.695         	0.046
MS.432         	11.672         	0.081
MS.433         	11.648         	0.054
MS.434         	11.625         	0.05
MS.435         	11.602         	0.054
MS.436         	11.577         	0.038
MS.437         	11.555         	0.022
MS.438         	11.532         	0.032
MS.439         	11.51          	0.046
MS.440         	11.485         	0.06
MS.441         	11.462         	0.046
MS.442         	11.44          	0.044
MS.443         	11.417         	0.048
MS.444         	11.395         	0.018
MS.445         	11.372         	0.06
MS.446         	11.35          	0.048
MS.447         	11.327         	0.018
MS.448         	11.305         	0.028
MS.449         	11.28          	0.012
MS.450         	11.257         	0.014
MS.451         	11.235         	0.056
MS.452         	11.215         	0.04
MS.453         	11.193         	0.04
MS.454         	11.17          	0.016
MS.455         	11.148         	0.018
MS.456         	11.125         	0.018
MS.457         	11.102         	0.036
MS.458         	11.08          	0.02
MS.459         	11.057         	0.02
MS.460         	11.035         	0.062
MS.461         	11.012         	0.02
MS.462         	10.992         	0.02
MS.463         	10.97          	0.018
MS.464         	10.948         	0.018
MS.465         	10.925         	0.02
MS.466         	10.905         	0.02
MS.467         	10.882         	0.018
MS.468         	10.86          	0.018
MS.469         	10.84          	0.018
MS.470         	10.818         	0.014
MS.471         	10.795         	0.02
MS.472         	10.775         	0.02
MS.473         	10.752         	0.018
MS.474         	10.73          	0.016
MS.475         	10.71          	0.016
MS.476         	10.688         	0.018
MS.477         	10.667         	0.018
MS.478         	10.645         	0.018
MS.479         	10.625         	0.018
MS.480         	10.602         	0.02
MS.481         	10.582         	0.018
MS.482         	10.56          	0.018
MS.483         	10.54          	0.018
MS.484         	10.517         	0.018
MS.485         	10.497         	0.016
MS.486         	10.477         	0.016
MS.487         	10.455         	0.018
MS.488         	10.435         	0.016
MS.489         	10.415         	0.022
MS.490         	10.392         	0.016
MS.491         	10.372         	0.016
MS.492         	10.352         	0.018
MS.493         	10.33          	0.026
MS.494         	10.31          	0.016
DERIVED EXCITABILITY VARIABLES
Program = QTracP 3/4/2020
Threshold method = 6 (optimised for CAP, using data for present condition only)
SR method = 1 (using actual data values)
6.                 	0.000               	Peak response\(mV)
9.                 	34.9                	Temperature ( C)
17.                	47                  	Age (years)
18.                	1                   	Sex (M=1, F=2)

EXTRA VARIABLES

MScPeak(mV) = 10.09
MScS5(mA) = 13.1
MScS50(mA) = 16.59
MScS95(mA) = 20.61
MScNSteps = 2
MScSteps(%) = 5.1
MScStepMax(%) = 2.7
MScD50 = 40
MScSlope = 5.45
MSFPeakAmp(mV) = 10.2
MSFNUnits = 118
MSFMeanUnitAmp(uV) = 86.1
MSFHuntTime(m) = 2.24
MSFError(%) = 6.16
MSFNLarge = 30.9
MSFMedianAmp(%) = 0.703
MSFMedianAmp(mV) = 0.0714
MSFHalfAmpAmp(%) = 0.915
MSFHalfAmpAmp(mV) = 0.0929
MSFLargestAmp(%) = 3.28
MSFLargestAmp(mV) = 0.333
MSFMeanRS(%) = 2
MSFOpts = 10106121
MScDuration(min) = 4.5
MSFTraces = 441
MSFSizeLimit(uV) = 25.4
MSFLimitType = 1
MSFSmallestAmp(uV) = 25.7

EXTRA WAVEFORMS


!MScan Model
!118
	1	11.62	0.34	2
	2	11.76	0.4	2
	3	11.86	0.28	2
	4	12.28	0.6	2
	5	12.36	0.37	2
	6	12.6	0.91	2
	7	12.78	0.57	2
	8	12.95	0.76	2
	9	13.26	1.04	2
	10	13.48	1.04	2
	11	13.52	0.43	2
	12	13.59	0.74	2
	13	13.68	0.75	2
	14	13.8	1.12	2
	15	13.91	0.75	2
	16	14.02	0.74	2
	17	14.12	0.8	2
	18	14.2	0.78	2
	19	14.24	0.43	2
	20	14.28	0.5	2
	21	14.33	0.57	2
	22	14.37	0.7	2
	23	14.43	0.57	2
	24	14.45	0.32	2
	25	14.47	0.32	2
	26	14.48	0.32	2
	27	14.52	0.78	2
	28	14.57	0.77	2
	29	14.61	0.51	2
	30	14.68	0.69	2
	31	14.75	0.71	2
	32	14.84	0.9	2
	33	14.93	1.2	2
	34	14.96	0.25	2
	35	14.99	0.28	2
	36	15.02	0.48	2
	37	15.05	0.54	2
	38	15.09	0.65	2
	39	15.15	0.94	2
	40	15.2	0.71	2
	41	15.25	0.53	2
	42	15.27	0.39	2
	43	15.33	0.59	2
	44	15.36	0.4	2
	45	15.42	0.72	2
	46	15.5	0.94	2
	47	15.57	0.57	2
	48	15.64	0.67	2
	49	15.7	0.61	2
	50	15.76	0.59	2
	51	15.82	0.85	2
	52	15.86	0.53	2
	53	15.9	0.36	2
	54	15.93	0.53	2
	55	15.96	0.66	2
	56	15.99	0.59	2
	57	16.02	0.56	2
	58	16.05	0.51	2
	59	16.07	0.54	2
	60	16.1	0.99	2
	61	16.13	0.79	2
	62	16.16	0.77	2
	63	16.19	0.86	2
	64	16.22	0.94	2
	65	16.25	0.68	2
	66	16.29	0.81	2
	67	16.32	1.01	2
	68	16.39	1.99	2
	69	16.47	1.86	2
	70	16.57	2.81	2
	71	16.68	3.28	2
	72	16.77	1.87	2
	73	16.86	2.34	2
	74	16.97	2.49	2
	75	17.04	1.12	2
	76	17.09	0.9	2
	77	17.14	0.72	2
	78	17.28	1.44	2
	79	17.49	1.62	2
	80	17.54	0.38	2
	81	17.63	0.4	2
	82	17.66	0.46	2
	83	17.69	0.46	2
	84	17.72	0.46	2
	85	17.75	0.46	2
	86	17.77	0.38	2
	87	17.8	0.28	2
	88	17.83	0.35	2
	89	17.86	0.35	2
	90	17.96	1.05	2
	91	18.06	0.77	2
	92	18.1	0.31	2
	93	18.14	0.57	2
	94	18.17	0.84	2
	95	18.21	0.64	2
	96	18.26	0.73	2
	97	18.31	0.82	2
	98	18.36	0.36	2
	99	18.41	0.8	2
	100	18.52	1.99	2
	101	18.66	1.2	2
	102	18.83	0.96	2
	103	19.01	1.16	2
	104	19.16	0.72	2
	105	19.75	2.28	2
	106	19.75	0.63	2
	107	19.86	2.07	2
	108	20.02	2.1	2
	109	20.21	2.91	2
	110	20.43	1.65	2
	111	21.1	1.77	2
	112	21.23	0.73	2
	113	21.38	0.33	2
	114	23.78	0.41	2
	115	24	0.75	2
	116	24.1	0.38	2
	117	24.29	0.68	2
	118	24.52	0.46	2

