File:              	C:\Qtrac\Data\Daniel M Sørensen\MScan multicentre study\Data from centres\Edmonton\MSCC00201C.QZD
Name:              	CA.EDM.NC.2.1
Protocol:          	MSCAN-R2
Date:              	1/2/20
Start time:        	10:52:48
Age:               	56
Sex:               	F
Temperature:       	31.5
S/R sites:         	CP Kn-TA
NC/disease:        	NC
Operator:          	KJ
Comments:
M-SCAN DATA (7.1-1.8m)
Scanpts: 87, 90, 492, 507
Stim. (mA)     	Amp. (mV)
MS.1           	30             	6.073
MS.2           	30             	6.119
MS.3           	30             	6.091
MS.4           	30             	6.101
MS.5           	30             	6.099
MS.6           	30             	6.065
MS.7           	30             	6.107
MS.8           	30             	6.093
MS.9           	30             	6.119
MS.10          	30             	6.097
MS.11          	30             	6.095
MS.12          	30             	6.079
MS.13          	30             	6.077
MS.14          	30             	6.111
MS.15          	30             	6.093
MS.16          	30             	6.099
MS.17          	30             	6.077
MS.18          	30             	6.087
MS.19          	30             	6.085
MS.20          	30             	6.107
MS.21          	30             	6.087
MS.22          	30             	6.067
MS.23          	29.88          	6.087
MS.24          	29.82          	6.097
MS.25          	29.76          	6.115
MS.26          	29.702         	6.077
MS.27          	29.642         	6.095
MS.28          	29.582         	6.091
MS.29          	29.522         	6.099
MS.30          	29.465         	6.107
MS.31          	29.405         	6.105
MS.32          	29.347         	6.099
MS.33          	29.287         	6.091
MS.34          	29.23          	6.111
MS.35          	29.172         	6.121
MS.36          	29.112         	6.101
MS.37          	29.055         	6.081
MS.38          	28.997         	6.117
MS.39          	28.94          	6.121
MS.40          	28.882         	6.095
MS.41          	28.823         	6.129
MS.42          	28.765         	6.093
MS.43          	28.707         	6.131
MS.44          	28.65          	6.117
MS.45          	28.595         	5.873
MS.46          	28.537         	6.111
MS.47          	28.48          	6.111
MS.48          	28.422         	6.113
MS.49          	28.365         	6.117
MS.50          	28.31          	6.105
MS.51          	28.252         	6.117
MS.52          	28.198         	6.109
MS.53          	28.14          	6.113
MS.54          	28.085         	6.121
MS.55          	28.028         	6.133
MS.56          	27.972         	6.107
MS.57          	27.915         	6.117
MS.58          	27.86          	6.115
MS.59          	27.805         	6.119
MS.60          	27.75          	6.129
MS.61          	27.692         	6.133
MS.62          	27.637         	6.123
MS.63          	27.582         	6.141
MS.64          	27.528         	6.113
MS.65          	27.472         	6.161
MS.66          	27.417         	6.129
MS.67          	27.362         	6.139
MS.68          	27.307         	6.137
MS.69          	27.255         	6.169
MS.70          	27.2           	6.145
MS.71          	27.145         	6.147
MS.72          	27.09          	6.129
MS.73          	27.037         	6.139
MS.74          	26.983         	6.155
MS.75          	26.927         	6.165
MS.76          	26.875         	6.149
MS.77          	26.82          	6.133
MS.78          	26.767         	6.145
MS.79          	26.715         	6.145
MS.80          	26.66          	6.133
MS.81          	26.608         	6.157
MS.82          	26.555         	6.151
MS.83          	26.502         	6.141
MS.84          	26.448         	6.145
MS.85          	26.395         	6.159
MS.86          	26.342         	6.151
MS.87          	26.29          	6.157
MS.88          	26.237         	6.161
MS.89          	26.185         	6.161
MS.90          	26.132         	6.129
MS.91          	26.08          	6.157
MS.92          	26.028         	6.129
MS.93          	25.977         	6.153
MS.94          	25.925         	6.133
MS.95          	25.872         	6.147
MS.96          	25.82          	6.161
MS.97          	25.77          	6.131
MS.98          	25.717         	6.159
MS.99          	25.667         	6.177
MS.100         	25.615         	6.194
MS.101         	25.565         	6.155
MS.102         	25.512         	6.109
MS.103         	25.462         	6.129
MS.104         	25.413         	6.165
MS.105         	25.36          	6.139
MS.106         	25.31          	6.141
MS.107         	25.26          	6.165
MS.108         	25.21          	6.135
MS.109         	25.157         	6.131
MS.110         	25.108         	6.141
MS.111         	25.057         	6.139
MS.112         	25.007         	6.149
MS.113         	24.957         	6.121
MS.114         	24.907         	6.139
MS.115         	24.858         	6.131
MS.116         	24.807         	6.125
MS.117         	24.76          	6.123
MS.118         	24.71          	6.131
MS.119         	24.66          	6.105
MS.120         	24.61          	6.107
MS.121         	24.562         	6.121
MS.122         	24.512         	6.081
MS.123         	24.465         	6.127
MS.124         	24.415         	6.034
MS.125         	24.365         	6.097
MS.126         	24.317         	6.103
MS.127         	24.27          	6.105
MS.128         	24.22          	6.113
MS.129         	24.172         	6.083
MS.130         	24.122         	6.067
MS.131         	24.075         	6.115
MS.132         	24.028         	6.077
MS.133         	23.98          	6.063
MS.134         	23.932         	6.111
MS.135         	23.882         	6.057
MS.136         	23.835         	6.032
MS.137         	23.788         	6.04
MS.138         	23.74          	6.042
MS.139         	23.692         	5.996
MS.140         	23.645         	6.03
MS.141         	23.597         	6.03
MS.142         	23.552         	5.992
MS.143         	23.505         	6.034
MS.144         	23.457         	6.016
MS.145         	23.41          	6.047
MS.146         	23.365         	6.059
MS.147         	23.317         	6.034
MS.148         	23.27          	6.036
MS.149         	23.225         	6.036
MS.150         	23.177         	5.908
MS.151         	23.132         	6.034
MS.152         	23.085         	5.978
MS.153         	23.04          	6.034
MS.154         	22.993         	5.954
MS.155         	22.948         	5.926
MS.156         	22.903         	5.962
MS.157         	22.855         	5.92
MS.158         	22.81          	5.867
MS.159         	22.765         	5.984
MS.160         	22.72          	5.984
MS.161         	22.672         	5.972
MS.162         	22.627         	5.928
MS.163         	22.582         	5.996
MS.164         	22.538         	5.887
MS.165         	22.493         	5.932
MS.166         	22.448         	5.95
MS.167         	22.403         	5.944
MS.168         	22.358         	5.972
MS.169         	22.312         	5.956
MS.170         	22.27          	5.779
MS.171         	22.225         	5.561
MS.172         	22.18          	5.609
MS.173         	22.135         	5.756
MS.174         	22.092         	5.75
MS.175         	22.047         	5.704
MS.176         	22.002         	5.767
MS.177         	21.96          	5.656
MS.178         	21.915         	5.646
MS.179         	21.872         	5.835
MS.180         	21.827         	5.754
MS.181         	21.785         	5.779
MS.182         	21.74          	5.567
MS.183         	21.698         	5.65
MS.184         	21.655         	5.664
MS.185         	21.61          	5.593
MS.186         	21.567         	5.603
MS.187         	21.525         	5.587
MS.188         	21.483         	5.553
MS.189         	21.438         	5.442
MS.190         	21.395         	5.529
MS.191         	21.352         	5.422
MS.192         	21.31          	5.338
MS.193         	21.267         	5.503
MS.194         	21.225         	5.489
MS.195         	21.182         	5.368
MS.196         	21.14          	5.346
MS.197         	21.097         	5.301
MS.198         	21.055         	5.414
MS.199         	21.015         	5.404
MS.200         	20.972         	5.313
MS.201         	20.93          	5.287
MS.202         	20.887         	5.303
MS.203         	20.847         	5.313
MS.204         	20.805         	5.315
MS.205         	20.762         	5.253
MS.206         	20.722         	5.138
MS.207         	20.68          	5.251
MS.208         	20.64          	5.1
MS.209         	20.597         	5.197
MS.210         	20.557         	5.136
MS.211         	20.515         	5.14
MS.212         	20.475         	5.035
MS.213         	20.435         	5.08
MS.214         	20.392         	5.072
MS.215         	20.352         	4.965
MS.216         	20.312         	5.076
MS.217         	20.27          	5.043
MS.218         	20.23          	5.066
MS.219         	20.19          	5.072
MS.220         	20.15          	4.991
MS.221         	20.11          	4.971
MS.222         	20.07          	4.963
MS.223         	20.03          	4.967
MS.224         	19.99          	4.909
MS.225         	19.95          	4.904
MS.226         	19.91          	4.846
MS.227         	19.87          	4.82
MS.228         	19.83          	4.862
MS.229         	19.79          	4.84
MS.230         	19.75          	4.794
MS.231         	19.712         	4.796
MS.232         	19.672         	4.886
MS.233         	19.632         	4.786
MS.234         	19.592         	4.85
MS.235         	19.555         	4.786
MS.236         	19.515         	4.711
MS.237         	19.475         	4.677
MS.238         	19.438         	4.766
MS.239         	19.397         	4.715
MS.240         	19.36          	4.715
MS.241         	19.32          	4.564
MS.242         	19.282         	4.703
MS.243         	19.245         	4.598
MS.244         	19.205         	4.647
MS.245         	19.167         	4.552
MS.246         	19.13          	4.667
MS.247         	19.09          	4.52
MS.248         	19.052         	4.451
MS.249         	19.015         	4.411
MS.250         	18.977         	4.518
MS.251         	18.938         	4.568
MS.252         	18.9           	4.532
MS.253         	18.862         	4.453
MS.254         	18.825         	4.528
MS.255         	18.788         	4.103
MS.256         	18.75          	4.369
MS.257         	18.712         	4.359
MS.258         	18.675         	4.314
MS.259         	18.637         	4.129
MS.260         	18.6           	4.151
MS.261         	18.562         	4.248
MS.262         	18.528         	4.042
MS.263         	18.49          	4.048
MS.264         	18.452         	3.992
MS.265         	18.415         	3.903
MS.266         	18.378         	4.006
MS.267         	18.342         	3.926
MS.268         	18.305         	3.996
MS.269         	18.27          	3.893
MS.270         	18.233         	3.839
MS.271         	18.195         	3.895
MS.272         	18.16          	3.972
MS.273         	18.122         	3.976
MS.274         	18.087         	3.781
MS.275         	18.05          	3.787
MS.276         	18.015         	3.764
MS.277         	17.98          	3.648
MS.278         	17.942         	3.785
MS.279         	17.907         	3.646
MS.280         	17.87          	3.666
MS.281         	17.835         	3.583
MS.282         	17.8           	3.577
MS.283         	17.765         	3.704
MS.284         	17.73          	3.621
MS.285         	17.692         	3.491
MS.286         	17.657         	3.434
MS.287         	17.622         	3.495
MS.288         	17.587         	3.454
MS.289         	17.552         	3.501
MS.290         	17.517         	3.235
MS.291         	17.483         	3.255
MS.292         	17.448         	3.313
MS.293         	17.413         	3.074
MS.294         	17.378         	3.049
MS.295         	17.342         	3.166
MS.296         	17.307         	3.138
MS.297         	17.275         	3.049
MS.298         	17.24          	3.015
MS.299         	17.205         	2.959
MS.300         	17.17          	2.832
MS.301         	17.135         	2.788
MS.302         	17.102         	2.796
MS.303         	17.067         	2.83
MS.304         	17.032         	2.788
MS.305         	17             	2.683
MS.306         	16.965         	2.679
MS.307         	16.932         	2.735
MS.308         	16.897         	2.691
MS.309         	16.865         	2.852
MS.310         	16.83          	2.667
MS.311         	16.797         	2.643
MS.312         	16.762         	2.556
MS.313         	16.73          	2.427
MS.314         	16.698         	2.59
MS.315         	16.663         	2.471
MS.316         	16.63          	2.53
MS.317         	16.597         	2.417
MS.318         	16.562         	2.536
MS.319         	16.53          	2.568
MS.320         	16.497         	2.361
MS.321         	16.465         	2.282
MS.322         	16.432         	2.381
MS.323         	16.397         	2.346
MS.324         	16.365         	2.079
MS.325         	16.333         	2.173
MS.326         	16.3           	2.054
MS.327         	16.267         	1.915
MS.328         	16.235         	2.302
MS.329         	16.202         	2.081
MS.330         	16.17          	2.093
MS.331         	16.137         	2.079
MS.332         	16.105         	1.803
MS.333         	16.075         	1.984
MS.334         	16.042         	1.974
MS.335         	16.01          	1.911
MS.336         	15.977         	1.791
MS.337         	15.945         	1.67
MS.338         	15.915         	1.787
MS.339         	15.882         	1.678
MS.340         	15.85          	1.774
MS.341         	15.818         	1.67
MS.342         	15.787         	1.621
MS.343         	15.755         	1.517
MS.344         	15.725         	1.531
MS.345         	15.693         	1.587
MS.346         	15.662         	1.617
MS.347         	15.63          	1.499
MS.348         	15.6           	1.452
MS.349         	15.568         	1.333
MS.350         	15.537         	1.233
MS.351         	15.505         	1.396
MS.352         	15.475         	1.309
MS.353         	15.443         	1.452
MS.354         	15.412         	1.231
MS.355         	15.382         	1.325
MS.356         	15.35          	1.267
MS.357         	15.32          	1.341
MS.358         	15.29          	1.213
MS.359         	15.26          	1.271
MS.360         	15.23          	1.225
MS.361         	15.197         	1.158
MS.362         	15.167         	1.253
MS.363         	15.137         	1.229
MS.364         	15.108         	1.186
MS.365         	15.077         	1.126
MS.366         	15.047         	1.049
MS.367         	15.017         	1.182
MS.368         	14.987         	1.102
MS.369         	14.957         	1.088
MS.370         	14.927         	1.017
MS.371         	14.898         	0.999
MS.372         	14.867         	0.937
MS.373         	14.837         	0.957
MS.374         	14.807         	1.053
MS.375         	14.78          	0.987
MS.376         	14.75          	0.79
MS.377         	14.72          	0.959
MS.378         	14.69          	0.82
MS.379         	14.66          	0.822
MS.380         	14.632         	0.872
MS.381         	14.602         	0.81
MS.382         	14.572         	0.83
MS.383         	14.545         	0.89
MS.384         	14.515         	0.784
MS.385         	14.485         	0.8
MS.386         	14.457         	0.693
MS.387         	14.427         	0.671
MS.388         	14.4           	0.651
MS.389         	14.37          	0.657
MS.390         	14.342         	0.612
MS.391         	14.312         	0.532
MS.392         	14.285         	0.606
MS.393         	14.255         	0.461
MS.394         	14.227         	0.477
MS.395         	14.2           	0.54
MS.396         	14.17          	0.524
MS.397         	14.142         	0.487
MS.398         	14.115         	0.437
MS.399         	14.085         	0.504
MS.400         	14.057         	0.357
MS.401         	14.03          	0.427
MS.402         	14.002         	0.483
MS.403         	13.975         	0.395
MS.404         	13.945         	0.437
MS.405         	13.917         	0.387
MS.406         	13.89          	0.338
MS.407         	13.862         	0.28
MS.408         	13.835         	0.312
MS.409         	13.807         	0.391
MS.410         	13.78          	0.294
MS.411         	13.752         	0.336
MS.412         	13.725         	0.31
MS.413         	13.697         	0.304
MS.414         	13.67          	0.238
MS.415         	13.642         	0.27
MS.416         	13.615         	0.268
MS.417         	13.587         	0.26
MS.418         	13.56          	0.25
MS.419         	13.535         	0.238
MS.420         	13.507         	0.252
MS.421         	13.48          	0.199
MS.422         	13.452         	0.185
MS.423         	13.425         	0.205
MS.424         	13.4           	0.177
MS.425         	13.372         	0.201
MS.426         	13.345         	0.207
MS.427         	13.32          	0.224
MS.428         	13.292         	0.173
MS.429         	13.265         	0.209
MS.430         	13.24          	0.203
MS.431         	13.212         	0.218
MS.432         	13.188         	0.189
MS.433         	13.16          	0.169
MS.434         	13.135         	0.163
MS.435         	13.108         	0.143
MS.436         	13.082         	0.105
MS.437         	13.055         	0.085
MS.438         	13.03          	0.169
MS.439         	13.002         	0.137
MS.440         	12.977         	0.105
MS.441         	12.952         	0.097
MS.442         	12.925         	0.115
MS.443         	12.9           	0.091
MS.444         	12.875         	0.095
MS.445         	12.847         	0.054
MS.446         	12.822         	0.113
MS.447         	12.797         	0.052
MS.448         	12.77          	0.06
MS.449         	12.745         	0.01
MS.450         	12.72          	0.028
MS.451         	12.695         	0.075
MS.452         	12.67          	0.03
MS.453         	12.645         	0.006
MS.454         	12.62          	0.048
MS.455         	12.592         	0.044
MS.456         	12.568         	0.034
MS.457         	12.542         	0.004
MS.458         	12.517         	0.038
MS.459         	12.492         	0.034
MS.460         	12.467         	0.052
MS.461         	12.443         	0.024
MS.462         	12.417         	0.000
MS.463         	12.395         	-0.008
MS.464         	12.37          	0.026
MS.465         	12.345         	0.002
MS.466         	12.32          	0.008
MS.467         	12.295         	-0.012
MS.468         	12.27          	-0.008
MS.469         	12.245         	-0.01
MS.470         	12.222         	0.024
MS.471         	12.197         	-0.01
MS.472         	12.172         	-0.012
MS.473         	12.148         	-0.01
MS.474         	12.125         	-0.012
MS.475         	12.1           	-0.012
MS.476         	12.075         	-0.012
MS.477         	12.052         	-0.012
MS.478         	12.028         	-0.012
MS.479         	12.002         	-0.01
MS.480         	11.98          	-0.014
MS.481         	11.955         	-0.012
MS.482         	11.932         	-0.01
MS.483         	11.907         	-0.014
MS.484         	11.885         	-0.012
MS.485         	11.86          	-0.002
MS.486         	11.837         	-0.01
MS.487         	11.812         	-0.01
MS.488         	11.79          	-0.01
MS.489         	11.765         	-0.01
MS.490         	11.742         	-0.01
MS.491         	11.72          	-0.014
MS.492         	11.695         	-0.01
MS.493         	11.672         	-0.01
MS.494         	11.648         	-0.01
MS.495         	11.625         	-0.008
MS.496         	11.602         	-0.01
MS.497         	11.58          	-0.01
MS.498         	11.555         	-0.012
MS.499         	11.532         	-0.006
MS.500         	11.51          	-0.01
MS.501         	11.488         	-0.012
MS.502         	11.465         	-0.01
MS.503         	11.44          	-0.012
MS.504         	11.417         	-0.01
MS.505         	11.395         	-0.012
MS.506         	11.372         	-0.012
MS.507         	11.35          	-0.012
MS.508         	11.327         	-0.012
MS.509         	11.305         	-0.008
MS.510         	11.282         	-0.01
MS.511         	11.26          	-0.01
MS.512         	11.238         	-0.012
MS.513         	11.215         	-0.01
MS.514         	11.193         	-0.008
MS.515         	11.17          	-0.012
MS.516         	11.148         	-0.01
MS.517         	11.125         	-0.012
MS.518         	11.102         	-0.012
MS.519         	11.08          	-0.01
MS.520         	11.057         	-0.01
MS.521         	11.037         	-0.01
MS.522         	11.015         	-0.01
MS.523         	10.992         	-0.012
MS.524         	10.97          	-0.012
MS.525         	10.948         	-0.012
MS.526         	10.927         	-0.01
MS.527         	10.905         	-0.012
MS.528         	10.882         	-0.01
MS.529         	10.86          	-0.012
MS.530         	10.84          	-0.01
MS.531         	10.818         	-0.012
MS.532         	10.795         	-0.014
MS.533         	10.775         	-0.008
MS.534         	10.752         	-0.01
MS.535         	10.733         	-0.01
MS.536         	10.71          	-0.012
MS.537         	10.69          	-0.008
MS.538         	10.667         	-0.012
MS.539         	10.645         	-0.01
MS.540         	10.625         	-0.008
MS.541         	10.602         	-0.012
MS.542         	10.582         	-0.014
MS.543         	10.562         	-0.012
MS.544         	10.54          	-0.012
MS.545         	10.52          	-0.012
MS.546         	10.497         	-0.01
MS.547         	10.477         	-0.014
MS.548         	10.455         	-0.01
MS.549         	10.435         	-0.01
MS.550         	10.415         	-0.01
MS.551         	10.392         	-0.012
MS.552         	10.372         	-0.012
MS.553         	10.352         	-0.012
MS.554         	10.332         	-0.01
MS.555         	10.31          	-0.008
MS.556         	10.29          	-0.012
MS.557         	10.27          	-0.008
MS.558         	10.25          	-0.01
MS.559         	10.227         	-0.012
MS.560         	10.207         	-0.01
MS.561         	10.188         	-0.012
MS.562         	10.167         	-0.01
MS.563         	10.148         	-0.01
MS.564         	10.127         	-0.012
MS.565         	10.108         	-0.012
MS.566         	10.087         	-0.012
MS.567         	10.068         	-0.012
MS.568         	10.045         	-0.01
MS.569         	10.025         	-0.01
MS.570         	10.005         	-0.01
DERIVED EXCITABILITY VARIABLES
Program = QTracP 3/4/2020
Threshold method = 6 (optimised for CAP, using data for present condition only)
SR method = 1 (using actual data values)
6.                 	0.000               	Peak response\(mV)
9.                 	31.5                	Temperature ( C)
17.                	56                  	Age (years)
18.                	2                   	Sex (M=1, F=2)

EXTRA VARIABLES

MScPeak(mV) = 6.1
MScS5(mA) = 13.79
MScS50(mA) = 17.34
MScS95(mA) = 22
MScNSteps = 0
MScSteps(%) = 0.0
MScStepMax(%) = 0.0
MScD50 = 52
MScSlope = 4.95
MSFPeakAmp(mV) = 6.16
MSFNUnits = 153
MSFMeanUnitAmp(uV) = 40.3
MSFHuntTime(m) = 2.5
MSFError(%) = 1.88
MSFNLarge = 50.9
MSFMedianAmp(%) = 0.566
MSFMedianAmp(mV) = 0.0349
MSFHalfAmpAmp(%) = 0.694
MSFHalfAmpAmp(mV) = 0.0428
MSFLargestAmp(%) = 2.84
MSFLargestAmp(mV) = 0.175
MSFMeanRS(%) = 1.99
MSFOpts = 10106121
MScDuration(min) = 5.3
MSFTraces = 421
MSFSizeLimit(uV) = 15.4
MSFLimitType = 1
MSFSmallestAmp(uV) = 17.1

EXTRA WAVEFORMS


!MScan Model
!153
	1	12.48	0.43	2
	2	12.65	0.41	2
	3	12.84	0.56	2
	4	12.91	0.28	2
	5	12.98	0.29	2
	6	13.07	0.39	2
	7	13.17	0.35	2
	8	13.27	0.36	2
	9	13.36	0.32	2
	10	13.47	0.49	2
	11	13.61	0.61	2
	12	13.68	0.37	2
	13	13.74	0.32	2
	14	13.81	0.42	2
	15	13.89	0.51	2
	16	13.96	0.52	2
	17	14.02	0.46	2
	18	14.07	0.46	2
	19	14.11	0.32	2
	20	14.15	0.4	2
	21	14.19	0.49	2
	22	14.23	0.45	2
	23	14.27	0.35	2
	24	14.3	0.36	2
	25	14.34	0.38	2
	26	14.38	0.48	2
	27	14.42	0.44	2
	28	14.46	0.44	2
	29	14.5	0.47	2
	30	14.54	0.5	2
	31	14.58	0.5	2
	32	14.62	0.49	2
	33	14.66	0.53	2
	34	14.71	0.58	2
	35	14.76	0.55	2
	36	14.8	0.53	2
	37	14.85	0.41	2
	38	14.89	0.4	2
	39	14.93	0.41	2
	40	14.99	0.68	2
	41	15.05	0.61	2
	42	15.12	0.64	2
	43	15.21	0.81	2
	44	15.3	0.86	2
	45	15.39	1.03	2
	46	15.45	0.66	2
	47	15.51	0.7	2
	48	15.57	0.67	2
	49	15.62	0.6	2
	50	15.67	0.7	2
	51	15.72	0.76	2
	52	15.77	0.65	2
	53	15.82	0.74	2
	54	15.87	0.86	2
	55	15.92	0.94	2
	56	15.97	0.91	2
	57	16.03	0.87	2
	58	16.08	0.86	2
	59	16.13	0.9	2
	60	16.19	0.98	2
	61	16.25	1.02	2
	62	16.31	0.94	2
	63	16.37	1	2
	64	16.44	1.07	2
	65	16.51	1.14	2
	66	16.57	0.79	2
	67	16.63	0.74	2
	68	16.69	0.76	2
	69	16.76	1.21	2
	70	16.83	1.05	2
	71	16.87	0.52	2
	72	16.92	0.54	2
	73	16.96	0.61	2
	74	16.98	0.59	2
	75	17.01	0.66	2
	76	17.05	0.58	2
	77	17.08	0.55	2
	78	17.12	0.6	2
	79	17.15	0.64	2
	80	17.18	0.54	2
	81	17.21	0.41	2
	82	17.23	0.34	2
	83	17.26	0.37	2
	84	17.29	0.39	2
	85	17.31	0.41	2
	86	17.34	0.45	2
	87	17.36	0.49	2
	88	17.39	0.5	2
	89	17.42	0.49	2
	90	17.45	0.48	2
	91	17.48	0.46	2
	92	17.51	0.35	2
	93	17.54	0.51	2
	94	17.58	0.78	2
	95	17.62	0.68	2
	96	17.65	0.7	2
	97	17.73	0.58	2
	98	17.78	0.87	2
	99	17.83	0.77	2
	100	17.89	0.73	2
	101	17.97	0.95	2
	102	18.04	0.78	2
	103	18.11	0.7	2
	104	18.16	0.63	2
	105	18.22	0.69	2
	106	18.29	0.81	2
	107	18.36	0.92	2
	108	18.5	1.73	2
	109	18.5	1.15	2
	110	18.65	0.69	2
	111	18.71	1.05	1.6
	112	18.78	0.5	2
	113	18.86	1.2	2
	114	18.96	1.2	2
	115	19.09	1.4	2
	116	19.22	1.2	2
	117	19.34	0.88	2
	118	19.42	0.58	2
	119	19.5	0.55	2
	120	19.58	0.51	2
	121	19.65	0.44	2
	122	19.71	0.45	2
	123	19.78	0.47	2
	124	19.85	0.43	2
	125	19.93	0.39	2
	126	20	0.42	2
	127	20.07	0.42	2
	128	20.14	0.44	2
	129	20.2	0.38	2
	130	20.26	0.37	2
	131	20.32	0.4	2
	132	20.38	0.42	2
	133	20.44	0.47	2
	134	20.51	0.49	2
	135	20.58	0.51	2
	136	20.67	0.47	2
	137	20.75	0.47	2
	138	20.83	0.57	2
	139	20.92	0.59	2
	140	21	0.59	2
	141	21.09	0.69	2
	142	21.18	0.67	2
	143	21.28	0.66	2
	144	21.39	0.8	2
	145	21.56	0.99	2
	146	21.79	1.36	2
	147	22.15	2.84	2
	148	22.57	1.35	2
	149	22.57	0.9	1.6
	150	23.35	0.8	2
	151	23.9	0.85	2
	152	24.28	0.48	2
	153	24.86	0.52	2

