File:              	C:\Qtrac\Data\Daniel M Sørensen\MScan multicentre study\Data from centres\Edmonton\MSCC00226A.QZD
Name:              	CA.EDM.NC.3.2
Protocol:          	MSCAN-R2
Date:              	26/2/20
Start time:        	09:35:31
Age:               	47
Sex:               	M
Temperature:       	31.2
S/R sites:         	Ulnar Wr-ADM
NC/disease:        	NC
Operator:          	KJ
Comments:
M-SCAN DATA (6.5-1.9m)
Scanpts: 37, 40, 484, 505
Stim. (mA)     	Amp. (mV)
MS.1           	28             	8.343
MS.2           	28             	8.327
MS.3           	28             	8.389
MS.4           	28             	8.339
MS.5           	28             	8.365
MS.6           	28             	8.373
MS.7           	28             	8.377
MS.8           	28             	8.363
MS.9           	28             	8.357
MS.10          	28             	8.383
MS.11          	28             	8.413
MS.12          	28             	8.415
MS.13          	28             	8.383
MS.14          	28             	8.341
MS.15          	28             	8.377
MS.16          	28             	8.421
MS.17          	28             	8.429
MS.18          	28             	8.395
MS.19          	28             	8.385
MS.20          	28             	8.461
MS.21          	28             	8.399
MS.22          	28             	8.399
MS.23          	27.887         	8.419
MS.24          	27.832         	8.385
MS.25          	27.778         	8.421
MS.26          	27.722         	8.377
MS.27          	27.665         	8.421
MS.28          	27.61          	8.445
MS.29          	27.555         	8.413
MS.30          	27.5           	8.433
MS.31          	27.445         	8.441
MS.32          	27.39          	8.486
MS.33          	27.335         	8.419
MS.34          	27.282         	8.437
MS.35          	27.227         	8.429
MS.36          	27.172         	8.466
MS.37          	27.118         	8.457
MS.38          	27.065         	8.445
MS.39          	27.01          	8.437
MS.40          	26.955         	8.435
MS.41          	26.903         	8.415
MS.42          	26.847         	8.459
MS.43          	26.795         	8.377
MS.44          	26.74          	8.407
MS.45          	26.688         	8.413
MS.46          	26.635         	8.385
MS.47          	26.58          	8.399
MS.48          	26.528         	8.437
MS.49          	26.475         	8.329
MS.50          	26.422         	8.427
MS.51          	26.37          	8.421
MS.52          	26.317         	8.435
MS.53          	26.265         	8.419
MS.54          	26.212         	8.407
MS.55          	26.16          	8.423
MS.56          	26.108         	8.393
MS.57          	26.055         	8.419
MS.58          	26.002         	8.395
MS.59          	25.95          	8.337
MS.60          	25.9           	8.377
MS.61          	25.847         	8.421
MS.62          	25.795         	8.367
MS.63          	25.745         	8.399
MS.64          	25.692         	8.385
MS.65          	25.64          	8.375
MS.66          	25.59          	8.337
MS.67          	25.54          	8.373
MS.68          	25.487         	8.401
MS.69          	25.438         	8.371
MS.70          	25.385         	8.304
MS.71          	25.335         	8.292
MS.72          	25.285         	8.27
MS.73          	25.235         	8.359
MS.74          	25.185         	8.282
MS.75          	25.132         	8.244
MS.76          	25.082         	8.186
MS.77          	25.032         	8.252
MS.78          	24.983         	8.236
MS.79          	24.932         	8.202
MS.80          	24.882         	8.208
MS.81          	24.832         	8.151
MS.82          	24.785         	8.24
MS.83          	24.735         	8.149
MS.84          	24.685         	8.171
MS.85          	24.635         	8.153
MS.86          	24.587         	8.244
MS.87          	24.538         	8.165
MS.88          	24.487         	8.149
MS.89          	24.44          	8.137
MS.90          	24.39          	8.238
MS.91          	24.342         	8.157
MS.92          	24.292         	8.188
MS.93          	24.245         	7.988
MS.94          	24.198         	8.101
MS.95          	24.147         	8.107
MS.96          	24.1           	8.135
MS.97          	24.052         	7.956
MS.98          	24.002         	7.962
MS.99          	23.955         	8.012
MS.100         	23.907         	7.938
MS.101         	23.86          	7.956
MS.102         	23.812         	7.944
MS.103         	23.765         	7.893
MS.104         	23.717         	7.946
MS.105         	23.67          	7.926
MS.106         	23.622         	7.853
MS.107         	23.575         	7.922
MS.108         	23.528         	7.934
MS.109         	23.48          	7.825
MS.110         	23.435         	7.801
MS.111         	23.387         	7.801
MS.112         	23.34          	7.813
MS.113         	23.295         	7.843
MS.114         	23.247         	7.738
MS.115         	23.2           	7.706
MS.116         	23.155         	7.74
MS.117         	23.108         	7.539
MS.118         	23.062         	7.45
MS.119         	23.017         	7.342
MS.120         	22.97          	7.356
MS.121         	22.925         	7.773
MS.122         	22.877         	7.376
MS.123         	22.832         	7.255
MS.124         	22.788         	7.259
MS.125         	22.743         	7.307
MS.126         	22.698         	7.33
MS.127         	22.65          	7.197
MS.128         	22.605         	7.269
MS.129         	22.56          	7.168
MS.130         	22.515         	7.326
MS.131         	22.47          	6.884
MS.132         	22.425         	7.005
MS.133         	22.38          	6.955
MS.134         	22.335         	7.001
MS.135         	22.292         	6.818
MS.136         	22.247         	6.808
MS.137         	22.202         	6.739
MS.138         	22.157         	6.709
MS.139         	22.115         	6.751
MS.140         	22.07          	6.582
MS.141         	22.025         	6.77
MS.142         	21.983         	6.751
MS.143         	21.938         	6.643
MS.144         	21.892         	6.558
MS.145         	21.85          	6.715
MS.146         	21.807         	6.528
MS.147         	21.762         	6.526
MS.148         	21.72          	6.552
MS.149         	21.675         	6.367
MS.150         	21.632         	6.433
MS.151         	21.59          	6.244
MS.152         	21.545         	6.322
MS.153         	21.502         	6.264
MS.154         	21.46          	6.165
MS.155         	21.417         	6.157
MS.156         	21.375         	6.105
MS.157         	21.333         	6.028
MS.158         	21.29          	6.109
MS.159         	21.247         	6.069
MS.160         	21.205         	5.954
MS.161         	21.163         	6.042
MS.162         	21.12          	5.897
MS.163         	21.077         	5.801
MS.164         	21.035         	5.843
MS.165         	20.993         	5.914
MS.166         	20.952         	5.95
MS.167         	20.91          	5.654
MS.168         	20.868         	5.479
MS.169         	20.825         	5.525
MS.170         	20.785         	5.587
MS.171         	20.743         	5.432
MS.172         	20.702         	5.807
MS.173         	20.66          	5.527
MS.174         	20.62          	5.368
MS.175         	20.577         	5.374
MS.176         	20.538         	5.454
MS.177         	20.495         	5.285
MS.178         	20.455         	5.404
MS.179         	20.413         	5.336
MS.180         	20.372         	5.271
MS.181         	20.333         	5.1
MS.182         	20.292         	4.896
MS.183         	20.25          	5.06
MS.184         	20.21          	5.199
MS.185         	20.17          	5.199
MS.186         	20.13          	4.88
MS.187         	20.09          	5.144
MS.188         	20.05          	5.068
MS.189         	20.01          	5.18
MS.190         	19.97          	5.15
MS.191         	19.93          	4.955
MS.192         	19.89          	5.112
MS.193         	19.85          	5.023
MS.194         	19.81          	5.001
MS.195         	19.77          	4.876
MS.196         	19.73          	5.309
MS.197         	19.692         	4.921
MS.198         	19.653         	4.703
MS.199         	19.612         	4.627
MS.200         	19.575         	4.894
MS.201         	19.535         	4.832
MS.202         	19.495         	4.741
MS.203         	19.458         	4.963
MS.204         	19.417         	4.339
MS.205         	19.38          	4.492
MS.206         	19.34          	4.008
MS.207         	19.302         	4.163
MS.208         	19.262         	4.242
MS.209         	19.225         	3.742
MS.210         	19.188         	3.928
MS.211         	19.147         	4.085
MS.212         	19.11          	3.869
MS.213         	19.073         	3.803
MS.214         	19.032         	3.543
MS.215         	18.995         	3.44
MS.216         	18.958         	3.434
MS.217         	18.92          	3.36
MS.218         	18.882         	3.062
MS.219         	18.845         	3.273
MS.220         	18.807         	3.072
MS.221         	18.77          	3.037
MS.222         	18.733         	2.973
MS.223         	18.695         	3.068
MS.224         	18.657         	3.045
MS.225         	18.62          	2.981
MS.226         	18.583         	2.971
MS.227         	18.545         	2.987
MS.228         	18.507         	2.806
MS.229         	18.47          	2.828
MS.230         	18.435         	2.715
MS.231         	18.397         	2.588
MS.232         	18.36          	2.5
MS.233         	18.325         	2.316
MS.234         	18.288         	2.405
MS.235         	18.25          	2.338
MS.236         	18.215         	2.278
MS.237         	18.177         	2.407
MS.238         	18.142         	2.161
MS.239         	18.105         	2.167
MS.240         	18.07          	2.25
MS.241         	18.032         	2.139
MS.242         	17.997         	2.201
MS.243         	17.96          	2.105
MS.244         	17.925         	2.036
MS.245         	17.89          	2.052
MS.246         	17.852         	2.187
MS.247         	17.817         	2.02
MS.248         	17.782         	2.095
MS.249         	17.747         	1.922
MS.250         	17.712         	2.008
MS.251         	17.675         	2.03
MS.252         	17.64          	1.948
MS.253         	17.605         	1.994
MS.254         	17.57          	2.002
MS.255         	17.535         	1.95
MS.256         	17.5           	1.905
MS.257         	17.465         	1.672
MS.258         	17.43          	1.851
MS.259         	17.395         	1.909
MS.260         	17.36          	1.849
MS.261         	17.325         	1.851
MS.262         	17.292         	1.648
MS.263         	17.257         	1.776
MS.264         	17.222         	1.797
MS.265         	17.188         	1.621
MS.266         	17.153         	1.762
MS.267         	17.12          	1.642
MS.268         	17.085         	1.629
MS.269         	17.05          	1.69
MS.270         	17.017         	1.597
MS.271         	16.983         	1.587
MS.272         	16.95          	1.462
MS.273         	16.915         	1.36
MS.274         	16.88          	1.587
MS.275         	16.847         	1.488
MS.276         	16.815         	1.428
MS.277         	16.78          	1.478
MS.278         	16.747         	1.523
MS.279         	16.712         	1.362
MS.280         	16.68          	1.263
MS.281         	16.647         	1.174
MS.282         	16.612         	1.402
MS.283         	16.58          	1.154
MS.284         	16.547         	1.261
MS.285         	16.515         	1.12
MS.286         	16.48          	1.086
MS.287         	16.448         	1.13
MS.288         	16.415         	0.957
MS.289         	16.382         	0.941
MS.290         	16.35          	0.924
MS.291         	16.317         	0.971
MS.292         	16.285         	0.904
MS.293         	16.253         	0.91
MS.294         	16.22          	0.912
MS.295         	16.188         	0.868
MS.296         	16.155         	0.886
MS.297         	16.122         	0.8
MS.298         	16.09          	0.794
MS.299         	16.057         	0.838
MS.300         	16.025         	0.665
MS.301         	15.995         	0.701
MS.302         	15.962         	0.638
MS.303         	15.93          	0.655
MS.304         	15.898         	0.743
MS.305         	15.867         	0.816
MS.306         	15.835         	0.524
MS.307         	15.802         	0.622
MS.308         	15.773         	0.634
MS.309         	15.74          	0.57
MS.310         	15.707         	0.675
MS.311         	15.677         	0.536
MS.312         	15.645         	0.479
MS.313         	15.615         	0.58
MS.314         	15.582         	0.538
MS.315         	15.552         	0.524
MS.316         	15.52          	0.5
MS.317         	15.49          	0.489
MS.318         	15.46          	0.5
MS.319         	15.427         	0.469
MS.320         	15.398         	0.453
MS.321         	15.367         	0.483
MS.322         	15.335         	0.443
MS.323         	15.305         	0.471
MS.324         	15.275         	0.445
MS.325         	15.245         	0.346
MS.326         	15.215         	0.401
MS.327         	15.182         	0.379
MS.328         	15.152         	0.326
MS.329         	15.122         	0.419
MS.330         	15.092         	0.409
MS.331         	15.062         	0.379
MS.332         	15.032         	0.397
MS.333         	15.002         	0.373
MS.334         	14.972         	0.304
MS.335         	14.943         	0.423
MS.336         	14.912         	0.332
MS.337         	14.882         	0.322
MS.338         	14.852         	0.324
MS.339         	14.822         	0.389
MS.340         	14.792         	0.318
MS.341         	14.765         	0.282
MS.342         	14.735         	0.397
MS.343         	14.705         	0.214
MS.344         	14.675         	0.395
MS.345         	14.648         	0.354
MS.346         	14.617         	0.318
MS.347         	14.587         	0.304
MS.348         	14.56          	0.322
MS.349         	14.53          	0.348
MS.350         	14.5           	0.175
MS.351         	14.472         	0.369
MS.352         	14.443         	0.201
MS.353         	14.415         	0.117
MS.354         	14.385         	0.248
MS.355         	14.358         	0.264
MS.356         	14.327         	0.246
MS.357         	14.3           	0.173
MS.358         	14.27          	0.252
MS.359         	14.242         	0.348
MS.360         	14.212         	0.224
MS.361         	14.185         	0.159
MS.362         	14.157         	0.155
MS.363         	14.127         	0.242
MS.364         	14.1           	0.149
MS.365         	14.072         	0.242
MS.366         	14.045         	0.23
MS.367         	14.015         	0.113
MS.368         	13.987         	0.22
MS.369         	13.96          	0.103
MS.370         	13.932         	0.121
MS.371         	13.905         	0.129
MS.372         	13.877         	0.103
MS.373         	13.85          	0.113
MS.374         	13.82          	0.099
MS.375         	13.792         	0.131
MS.376         	13.765         	0.091
MS.377         	13.737         	0.109
MS.378         	13.71          	0.095
MS.379         	13.682         	0.07
MS.380         	13.657         	0.185
MS.381         	13.63          	0.113
MS.382         	13.602         	0.103
MS.383         	13.575         	0.073
MS.384         	13.547         	0.07
MS.385         	13.52          	0.058
MS.386         	13.492         	0.155
MS.387         	13.467         	0.07
MS.388         	13.44          	0.066
MS.389         	13.412         	0.066
MS.390         	13.385         	0.068
MS.391         	13.36          	0.073
MS.392         	13.332         	0.093
MS.393         	13.305         	0.073
MS.394         	13.28          	0.075
MS.395         	13.252         	0.052
MS.396         	13.225         	0.054
MS.397         	13.2           	0.054
MS.398         	13.172         	0.068
MS.399         	13.148         	0.073
MS.400         	13.12          	0.062
MS.401         	13.095         	0.056
MS.402         	13.068         	0.054
MS.403         	13.042         	0.07
MS.404         	13.017         	0.048
MS.405         	12.99          	0.054
MS.406         	12.965         	0.066
MS.407         	12.938         	0.054
MS.408         	12.912         	0.048
MS.409         	12.887         	0.028
MS.410         	12.86          	0.052
MS.411         	12.835         	0.058
MS.412         	12.81          	0.054
MS.413         	12.785         	0.05
MS.414         	12.757         	0.073
MS.415         	12.733         	0.052
MS.416         	12.707         	0.01
MS.417         	12.682         	0.058
MS.418         	12.657         	0.06
MS.419         	12.632         	0.058
MS.420         	12.608         	0.054
MS.421         	12.58          	0.012
MS.422         	12.555         	0.01
MS.423         	12.53          	0.016
MS.424         	12.505         	0.014
MS.425         	12.48          	0.014
MS.426         	12.455         	0.058
MS.427         	12.43          	0.06
MS.428         	12.405         	0.054
MS.429         	12.382         	0.056
MS.430         	12.358         	0.044
MS.431         	12.332         	0.054
MS.432         	12.307         	0.058
MS.433         	12.282         	0.06
MS.434         	12.257         	0.012
MS.435         	12.235         	0.008
MS.436         	12.21          	0.012
MS.437         	12.185         	0.012
MS.438         	12.16          	0.006
MS.439         	12.137         	0.014
MS.440         	12.113         	0.012
MS.441         	12.087         	0.016
MS.442         	12.062         	0.002
MS.443         	12.04          	0.006
MS.444         	12.015         	0.004
MS.445         	11.992         	0.002
MS.446         	11.967         	0.004
MS.447         	11.943         	0.006
MS.448         	11.92          	0.002
MS.449         	11.895         	0.006
MS.450         	11.872         	0.008
MS.451         	11.847         	0.006
MS.452         	11.825         	0.008
MS.453         	11.8           	0.006
MS.454         	11.778         	0.01
MS.455         	11.755         	0.008
MS.456         	11.73          	0.002
MS.457         	11.707         	0.008
MS.458         	11.685         	0.008
MS.459         	11.66          	0.004
MS.460         	11.637         	0.006
MS.461         	11.615         	0.006
MS.462         	11.59          	0.008
MS.463         	11.568         	0.012
MS.464         	11.545         	0.006
MS.465         	11.523         	0.006
MS.466         	11.497         	0.014
MS.467         	11.475         	0.008
MS.468         	11.452         	0.008
MS.469         	11.43          	0.004
MS.470         	11.407         	0.004
MS.471         	11.385         	0.01
MS.472         	11.36          	0.004
MS.473         	11.337         	0.006
MS.474         	11.315         	0.006
MS.475         	11.292         	0.01
MS.476         	11.27          	0.008
MS.477         	11.247         	0.008
MS.478         	11.225         	0.008
MS.479         	11.202         	0.004
MS.480         	11.18          	0.006
MS.481         	11.157         	0.008
MS.482         	11.135         	0.012
MS.483         	11.115         	0.008
MS.484         	11.092         	0.01
MS.485         	11.07          	0.01
MS.486         	11.047         	0.008
MS.487         	11.025         	0.004
MS.488         	11.002         	0.006
MS.489         	10.983         	0.01
MS.490         	10.96          	0.006
MS.491         	10.938         	0.008
MS.492         	10.915         	0.006
MS.493         	10.895         	0.012
MS.494         	10.872         	0.006
MS.495         	10.85          	0.01
MS.496         	10.827         	0.008
MS.497         	10.807         	0.004
MS.498         	10.785         	0.012
MS.499         	10.765         	0.008
MS.500         	10.742         	0.012
MS.501         	10.72          	0.014
MS.502         	10.7           	0.012
MS.503         	10.677         	0.012
MS.504         	10.657         	0.01
MS.505         	10.635         	0.006
DERIVED EXCITABILITY VARIABLES
Program = QTracP 3/4/2020
Threshold method = 6 (optimised for CAP, using data for present condition only)
SR method = 1 (using actual data values)
6.                 	0.000               	Peak response\(mV)
9.                 	31.2                	Temperature ( C)
17.                	47                  	Age (years)
18.                	1                   	Sex (M=1, F=2)

EXTRA VARIABLES

MScPeak(mV) = 8.37
MScS5(mA) = 15.08
MScS50(mA) = 19.3
MScS95(mA) = 23.88
MScNSteps = 2
MScSteps(%) = 4.8
MScStepMax(%) = 2.4
MScD50 = 45
MScSlope = 5.2
MSFPeakAmp(mV) = 8.43
MSFNUnits = 165
MSFMeanUnitAmp(uV) = 51.1
MSFHuntTime(m) = 3.17
MSFError(%) = 3.79
MSFNLarge = 45.6
MSFMedianAmp(%) = 0.464
MSFMedianAmp(mV) = 0.0391
MSFHalfAmpAmp(%) = 0.696
MSFHalfAmpAmp(mV) = 0.0587
MSFLargestAmp(%) = 3.24
MSFLargestAmp(mV) = 0.273
MSFMeanRS(%) = 2
MSFOpts = 10106121
MScDuration(min) = 4.6
MSFTraces = 469
MSFSizeLimit(uV) = 21.1
MSFLimitType = 1
MSFSmallestAmp(uV) = 21.3

EXTRA WAVEFORMS


!MScan Model
!165
	1	12.6	0.33	2
	2	13.37	0.5	2
	3	13.88	0.64	2
	4	14.16	1.18	2
	5	14.64	1.39	2
	6	15.17	0.65	2
	7	15.3	0.38	2
	8	15.37	0.26	2
	9	15.44	0.26	2
	10	15.56	0.51	2
	11	15.71	0.71	2
	12	15.84	0.88	2
	13	15.95	0.69	2
	14	16.01	0.43	2
	15	16.07	0.55	2
	16	16.11	0.29	2
	17	16.17	0.52	2
	18	16.24	0.38	2
	19	16.27	0.27	2
	20	16.3	0.27	2
	21	16.33	0.33	2
	22	16.37	0.39	2
	23	16.4	0.38	2
	24	16.43	0.34	2
	25	16.46	0.3	2
	26	16.49	0.28	2
	27	16.51	0.26	2
	28	16.54	0.39	2
	29	16.57	0.4	2
	30	16.62	0.81	2
	31	16.7	0.86	2
	32	16.77	0.7	2
	33	16.84	0.76	2
	34	16.9	0.62	2
	35	16.98	0.62	2
	36	17.06	0.54	2
	37	17.22	1.37	2
	38	17.33	0.88	2
	39	17.45	0.85	2
	40	17.59	0.86	2
	41	17.69	0.78	2
	42	17.79	0.47	2
	43	17.87	0.48	2
	44	17.95	0.55	2
	45	18.03	0.61	2
	46	18.11	0.71	2
	47	18.19	0.66	2
	48	18.21	0.35	2
	49	18.22	0.36	2
	50	18.24	0.38	2
	51	18.26	0.36	2
	52	18.28	0.36	2
	53	18.3	0.3	2
	54	18.32	0.28	2
	55	18.33	0.25	2
	56	18.36	0.4	2
	57	18.39	0.38	2
	58	18.41	0.26	2
	59	18.42	0.3	2
	60	18.44	0.3	2
	61	18.45	0.3	2
	62	18.47	0.3	2.2
	63	18.51	0.93	2
	64	18.57	0.95	2
	65	18.62	0.85	2
	66	18.66	0.56	2
	67	18.68	0.25	2
	68	18.7	0.29	2
	69	18.72	0.36	2
	70	18.74	0.37	2
	71	18.76	0.37	2
	72	18.78	0.39	2
	73	18.8	0.39	2
	74	18.81	3.24	2
	75	18.82	0.31	2
	76	18.84	0.31	2
	77	18.86	0.49	2
	78	18.88	0.37	2
	79	18.9	0.39	2
	80	18.92	0.39	2
	81	18.94	0.41	2
	82	18.96	0.41	2
	83	18.98	0.42	2
	84	19	0.47	2
	85	19.02	0.54	2
	86	19.05	0.71	2
	87	19.08	0.86	2
	88	19.11	0.88	2
	89	19.14	0.88	2
	90	19.18	0.91	2
	91	19.21	0.91	2
	92	19.25	1.18	2
	93	19.3	1.51	2
	94	19.35	1.07	2
	95	19.41	1.13	2
	96	19.5	1.75	2
	97	19.79	1.66	2
	98	20.23	2.12	2
	99	20.3	0.31	2
	100	20.38	0.68	2
	101	20.48	1.35	2
	102	20.61	1.03	2
	103	20.71	1.14	2
	104	20.81	1.16	2
	105	20.86	0.53	2
	106	20.91	0.45	2
	107	20.95	0.36	2
	108	20.99	0.35	2
	109	21.03	0.55	2
	110	21.09	0.76	2
	111	21.15	0.91	2
	112	21.2	0.61	2
	113	21.25	0.42	2
	114	21.28	0.27	2
	115	21.31	0.27	2
	116	21.35	0.4	2
	117	21.39	0.45	2
	118	21.43	0.36	2
	119	21.46	0.35	2
	120	21.49	0.39	2
	121	21.53	0.46	2
	122	21.58	0.44	2
	123	21.62	0.43	2
	124	21.66	0.56	2
	125	21.74	0.88	2
	126	21.8	0.56	2
	127	21.86	0.46	2
	128	21.93	0.5	2
	129	21.99	0.61	2
	130	22.05	0.59	2
	131	22.11	0.47	2
	132	22.16	0.34	2
	133	22.2	0.33	2
	134	22.24	0.42	2
	135	22.29	0.43	2
	136	22.33	0.5	2
	137	22.38	0.61	2
	138	22.43	0.53	2
	139	22.48	0.53	2
	140	22.54	0.53	2
	141	22.67	1.4	2
	142	22.82	1.41	2
	143	22.9	0.9	2
	144	22.99	0.87	2
	145	23.09	0.67	2
	146	23.09	0.44	2
	147	23.21	1.06	2
	148	23.31	0.92	2
	149	23.41	0.81	2
	150	23.51	0.4	2
	151	23.62	0.38	2
	152	23.72	0.3	2
	153	23.81	0.32	2
	154	23.89	0.38	2
	155	23.98	0.39	2
	156	24.08	0.4	2
	157	24.17	0.38	2
	158	24.65	1.41	2
	159	24.88	0.32	2
	160	25.04	0.32	2
	161	25.15	0.3	2
	162	25.23	0.27	2
	163	25.41	0.41	2
	164	25.69	0.55	2
	165	26.5	0.46	2

