File:              	C:\Qtrac\Data\Daniel M Sørensen\MScan multicentre study\Data from centres\Edmonton\MSCC00218A.QZD
Name:              	CA.EDM.NC.3.2
Protocol:          	MSCAN-R2
Date:              	18/2/20
Start time:        	09:20:21
Age:               	47
Sex:               	M
Temperature:       	36.6
S/R sites:         	Median Wr-APB
NC/disease:        	NC
Operator:          	KJ
Comments:
M-SCAN DATA (5.3-1.5m)
Scanpts: 32, 38, 406, 428
Stim. (mA)     	Amp. (mV)
MS.1           	12             	11.432
MS.2           	12             	11.396
MS.3           	12             	11.402
MS.4           	12             	11.36
MS.5           	12             	11.332
MS.6           	12             	11.344
MS.7           	12             	11.342
MS.8           	12             	11.36
MS.9           	12             	11.322
MS.10          	12             	11.36
MS.11          	12             	11.374
MS.12          	12             	11.344
MS.13          	12             	11.354
MS.14          	12             	11.362
MS.15          	12             	11.372
MS.16          	12             	11.368
MS.17          	12             	11.37
MS.18          	12             	11.356
MS.19          	12             	11.386
MS.20          	12             	11.354
MS.21          	12             	11.394
MS.22          	12             	11.372
MS.23          	12             	11.366
MS.24          	11.952         	11.336
MS.25          	11.927         	11.38
MS.26          	11.905         	11.364
MS.27          	11.88          	11.36
MS.28          	11.858         	11.342
MS.29          	11.832         	11.374
MS.30          	11.81          	11.368
MS.31          	11.785         	11.348
MS.32          	11.762         	11.364
MS.33          	11.74          	11.352
MS.34          	11.715         	11.36
MS.35          	11.693         	11.348
MS.36          	11.667         	11.364
MS.37          	11.645         	11.348
MS.38          	11.622         	11.376
MS.39          	11.6           	11.362
MS.40          	11.575         	11.392
MS.41          	11.552         	11.338
MS.42          	11.53          	11.32
MS.43          	11.507         	11.344
MS.44          	11.483         	11.364
MS.45          	11.46          	11.342
MS.46          	11.438         	11.338
MS.47          	11.415         	11.314
MS.48          	11.392         	11.34
MS.49          	11.37          	11.332
MS.50          	11.347         	11.32
MS.51          	11.325         	11.32
MS.52          	11.3           	11.354
MS.53          	11.278         	11.342
MS.54          	11.255         	11.348
MS.55          	11.233         	11.328
MS.56          	11.21          	11.374
MS.57          	11.188         	11.36
MS.58          	11.167         	11.354
MS.59          	11.145         	11.332
MS.60          	11.122         	11.307
MS.61          	11.1           	11.318
MS.62          	11.077         	11.316
MS.63          	11.055         	11.295
MS.64          	11.032         	11.312
MS.65          	11.01          	11.307
MS.66          	10.99          	11.322
MS.67          	10.967         	11.334
MS.68          	10.945         	11.318
MS.69          	10.922         	11.275
MS.70          	10.903         	11.314
MS.71          	10.88          	11.31
MS.72          	10.858         	11.305
MS.73          	10.837         	11.303
MS.74          	10.815         	11.138
MS.75          	10.792         	11.291
MS.76          	10.773         	11.15
MS.77          	10.75          	11.277
MS.78          	10.727         	11.126
MS.79          	10.707         	11.271
MS.80          	10.685         	11.013
MS.81          	10.665         	11.094
MS.82          	10.642         	11.253
MS.83          	10.622         	11.233
MS.84          	10.6           	11.233
MS.85          	10.58          	10.744
MS.86          	10.557         	10.721
MS.87          	10.537         	11.058
MS.88          	10.515         	10.752
MS.89          	10.495         	10.754
MS.90          	10.475         	11.021
MS.91          	10.452         	10.772
MS.92          	10.432         	10.929
MS.93          	10.412         	10.975
MS.94          	10.39          	10.776
MS.95          	10.37          	10.558
MS.96          	10.35          	10.671
MS.97          	10.327         	10.717
MS.98          	10.307         	10.564
MS.99          	10.287         	10.699
MS.100         	10.267         	10.866
MS.101         	10.245         	10.486
MS.102         	10.225         	10.605
MS.103         	10.205         	10.431
MS.104         	10.185         	10.81
MS.105         	10.165         	10.405
MS.106         	10.145         	10.262
MS.107         	10.125         	10.401
MS.108         	10.102         	10.373
MS.109         	10.082         	10.407
MS.110         	10.062         	10.276
MS.111         	10.042         	10.449
MS.112         	10.023         	10.26
MS.113         	10.002         	10.218
MS.114         	9.983          	10.049
MS.115         	9.962          	10.218
MS.116         	9.943          	10.075
MS.117         	9.922          	9.803
MS.118         	9.903          	10.047
MS.119         	9.885          	9.98
MS.120         	9.865          	10.002
MS.121         	9.845          	10.026
MS.122         	9.825          	10.204
MS.123         	9.805          	9.966
MS.124         	9.785          	9.761
MS.125         	9.765          	9.799
MS.126         	9.747          	10.016
MS.127         	9.727          	9.96
MS.128         	9.707          	9.606
MS.129         	9.688          	9.902
MS.130         	9.67           	9.646
MS.131         	9.65           	9.593
MS.132         	9.63           	9.491
MS.133         	9.61           	9.517
MS.134         	9.592          	9.515
MS.135         	9.573          	9.602
MS.136         	9.552          	9.489
MS.137         	9.535          	9.517
MS.138         	9.515          	9.547
MS.139         	9.497          	9.545
MS.140         	9.477          	9.491
MS.141         	9.457          	9.493
MS.142         	9.44           	9.467
MS.143         	9.42           	9.452
MS.144         	9.403          	9.269
MS.145         	9.382          	9.39
MS.146         	9.365          	9.388
MS.147         	9.345          	9.253
MS.148         	9.327          	9.448
MS.149         	9.307          	9.114
MS.150         	9.29           	9.4
MS.151         	9.27           	9.132
MS.152         	9.252          	9.205
MS.153         	9.235          	9.124
MS.154         	9.215          	9.231
MS.155         	9.198          	9.031
MS.156         	9.18           	9.062
MS.157         	9.16           	8.834
MS.158         	9.142          	8.888
MS.159         	9.125          	8.921
MS.160         	9.105          	8.85
MS.161         	9.087          	8.808
MS.162         	9.07           	8.764
MS.163         	9.052          	8.649
MS.164         	9.033          	8.754
MS.165         	9.015          	8.586
MS.166         	8.997          	8.48
MS.167         	8.98           	8.351
MS.168         	8.96           	7.859
MS.169         	8.943          	8.3
MS.170         	8.925          	8.373
MS.171         	8.908          	8.182
MS.172         	8.89           	8.097
MS.173         	8.872          	7.865
MS.174         	8.855          	7.571
MS.175         	8.837          	7.475
MS.176         	8.82           	7.591
MS.177         	8.802          	7.374
MS.178         	8.783          	7.245
MS.179         	8.765          	7.4
MS.180         	8.747          	7.239
MS.181         	8.73           	7.223
MS.182         	8.715          	6.85
MS.183         	8.698          	7.104
MS.184         	8.68           	6.921
MS.185         	8.662          	6.782
MS.186         	8.645          	6.659
MS.187         	8.627          	6.401
MS.188         	8.61           	6.21
MS.189         	8.592          	6.5
MS.190         	8.575          	6.145
MS.191         	8.557          	6.351
MS.192         	8.54           	6.326
MS.193         	8.525          	6.236
MS.194         	8.507          	6.057
MS.195         	8.49           	6.24
MS.196         	8.472          	5.994
MS.197         	8.455          	5.916
MS.198         	8.44           	6.016
MS.199         	8.422          	5.948
MS.200         	8.405          	5.803
MS.201         	8.39           	5.763
MS.202         	8.372          	5.789
MS.203         	8.355          	5.916
MS.204         	8.337          	5.533
MS.205         	8.323          	5.69
MS.206         	8.305          	5.603
MS.207         	8.29           	5.519
MS.208         	8.273          	5.495
MS.209         	8.255          	5.325
MS.210         	8.24           	5.295
MS.211         	8.222          	5.011
MS.212         	8.207          	5.233
MS.213         	8.19           	5.039
MS.214         	8.172          	5.08
MS.215         	8.158          	5.16
MS.216         	8.14           	4.88
MS.217         	8.125          	5.08
MS.218         	8.108          	4.844
MS.219         	8.092          	4.155
MS.220         	8.075          	4.852
MS.221         	8.06           	4.933
MS.222         	8.045          	4.784
MS.223         	8.028          	4.032
MS.224         	8.012          	4.659
MS.225         	7.995          	3.988
MS.226         	7.98           	4.469
MS.227         	7.965          	4.383
MS.228         	7.947          	3.783
MS.229         	7.932          	4.294
MS.230         	7.915          	3.692
MS.231         	7.9            	3.577
MS.232         	7.885          	3.773
MS.233         	7.87           	3.69
MS.234         	7.852          	3.456
MS.235         	7.837          	3.517
MS.236         	7.822          	3.579
MS.237         	7.805          	3.482
MS.238         	7.79           	3.551
MS.239         	7.775          	3.203
MS.240         	7.76           	3.243
MS.241         	7.745          	3.352
MS.242         	7.727          	3.352
MS.243         	7.712          	3.205
MS.244         	7.697          	3.245
MS.245         	7.682          	3.128
MS.246         	7.668          	2.896
MS.247         	7.652          	3.201
MS.248         	7.635          	3.174
MS.249         	7.62           	2.975
MS.250         	7.605          	2.84
MS.251         	7.59           	2.824
MS.252         	7.575          	2.717
MS.253         	7.56           	2.776
MS.254         	7.545          	2.786
MS.255         	7.53           	2.713
MS.256         	7.515          	2.639
MS.257         	7.5            	2.769
MS.258         	7.485          	2.568
MS.259         	7.47           	2.389
MS.260         	7.455          	2.425
MS.261         	7.44           	2.397
MS.262         	7.425          	2.391
MS.263         	7.41           	2.353
MS.264         	7.395          	2.419
MS.265         	7.38           	2.256
MS.266         	7.365          	2.087
MS.267         	7.352          	2.308
MS.268         	7.337          	2.3
MS.269         	7.322          	1.801
MS.270         	7.307          	1.976
MS.271         	7.293          	1.875
MS.272         	7.277          	1.911
MS.273         	7.265          	1.702
MS.274         	7.25           	1.7
MS.275         	7.235          	1.827
MS.276         	7.22           	1.696
MS.277         	7.205          	1.45
MS.278         	7.192          	1.392
MS.279         	7.177          	1.347
MS.280         	7.162          	0.989
MS.281         	7.148          	1.289
MS.282         	7.135          	1.319
MS.283         	7.12           	1.46
MS.284         	7.105          	1.418
MS.285         	7.092          	1.317
MS.286         	7.077          	0.588
MS.287         	7.062          	0.92
MS.288         	7.05           	0.745
MS.289         	7.035          	0.697
MS.290         	7.02           	0.62
MS.291         	7.007          	0.61
MS.292         	6.992          	0.844
MS.293         	6.98           	0.471
MS.294         	6.965          	0.55
MS.295         	6.95           	0.6
MS.296         	6.938          	0.483
MS.297         	6.922          	0.548
MS.298         	6.91           	0.399
MS.299         	6.895          	0.433
MS.300         	6.882          	0.385
MS.301         	6.867          	0.437
MS.302         	6.855          	0.495
MS.303         	6.84           	0.359
MS.304         	6.827          	0.377
MS.305         	6.812          	0.359
MS.306         	6.8            	0.421
MS.307         	6.787          	0.403
MS.308         	6.773          	0.314
MS.309         	6.76           	0.363
MS.310         	6.745          	0.346
MS.311         	6.733          	0.334
MS.312         	6.72           	0.306
MS.313         	6.705          	0.344
MS.314         	6.692          	0.32
MS.315         	6.677          	0.284
MS.316         	6.665          	0.308
MS.317         	6.652          	0.312
MS.318         	6.637          	0.292
MS.319         	6.625          	0.298
MS.320         	6.612          	0.26
MS.321         	6.6            	0.288
MS.322         	6.585          	0.246
MS.323         	6.572          	0.244
MS.324         	6.56           	0.276
MS.325         	6.547          	0.28
MS.326         	6.532          	0.248
MS.327         	6.52           	0.234
MS.328         	6.507          	0.205
MS.329         	6.495          	0.214
MS.330         	6.48           	0.167
MS.331         	6.467          	0.248
MS.332         	6.455          	0.175
MS.333         	6.442          	0.246
MS.334         	6.43           	0.149
MS.335         	6.418          	0.147
MS.336         	6.405          	0.105
MS.337         	6.39           	0.157
MS.338         	6.378          	0.095
MS.339         	6.365          	0.137
MS.340         	6.352          	0.107
MS.341         	6.34           	0.145
MS.342         	6.327          	0.097
MS.343         	6.315          	0.066
MS.344         	6.302          	0.107
MS.345         	6.29           	0.115
MS.346         	6.277          	0.073
MS.347         	6.265          	0.117
MS.348         	6.253          	0.093
MS.349         	6.24           	0.099
MS.350         	6.227          	0.075
MS.351         	6.215          	0.073
MS.352         	6.202          	0.081
MS.353         	6.19           	0.077
MS.354         	6.177          	0.052
MS.355         	6.165          	0.081
MS.356         	6.152          	0.07
MS.357         	6.14           	0.052
MS.358         	6.128          	0.052
MS.359         	6.115          	0.081
MS.360         	6.102          	0.093
MS.361         	6.092          	0.058
MS.362         	6.08           	0.052
MS.363         	6.067          	0.056
MS.364         	6.055          	0.06
MS.365         	6.043          	0.054
MS.366         	6.03           	0.028
MS.367         	6.02           	0.056
MS.368         	6.007          	0.075
MS.369         	5.995          	0.02
MS.370         	5.983          	0.056
MS.371         	5.97           	0.05
MS.372         	5.96           	0.02
MS.373         	5.947          	0.036
MS.374         	5.935          	0.054
MS.375         	5.922          	0.03
MS.376         	5.912          	0.022
MS.377         	5.9            	0.034
MS.378         	5.887          	0.026
MS.379         	5.875          	0.008
MS.380         	5.865          	0.032
MS.381         	5.852          	0.006
MS.382         	5.84           	0.008
MS.383         	5.83           	0.034
MS.384         	5.817          	0.006
MS.385         	5.805          	0.008
MS.386         	5.795          	0.01
MS.387         	5.782          	0.024
MS.388         	5.773          	0.036
MS.389         	5.76           	0.006
MS.390         	5.747          	0.004
MS.391         	5.737          	0.034
MS.392         	5.725          	0.008
MS.393         	5.715          	0.008
MS.394         	5.702          	0.01
MS.395         	5.69           	0.004
MS.396         	5.68           	0.01
MS.397         	5.668          	0.008
MS.398         	5.657          	0.004
MS.399         	5.645          	0.004
MS.400         	5.635          	0.008
MS.401         	5.622          	0.002
MS.402         	5.612          	0.006
MS.403         	5.6            	0.006
MS.404         	5.59           	0.004
MS.405         	5.577          	0.006
MS.406         	5.567          	0.004
MS.407         	5.555          	0.006
MS.408         	5.545          	0.004
MS.409         	5.535          	0.004
MS.410         	5.523          	0.006
MS.411         	5.512          	0.004
MS.412         	5.5            	0.002
MS.413         	5.49           	0.004
MS.414         	5.48           	0.004
MS.415         	5.467          	0.004
MS.416         	5.457          	0.004
MS.417         	5.445          	0.004
MS.418         	5.435          	0.002
MS.419         	5.425          	0.008
MS.420         	5.412          	0.002
MS.421         	5.402          	0.004
MS.422         	5.392          	0.004
MS.423         	5.38           	0.002
MS.424         	5.37           	0.004
MS.425         	5.36           	0.004
MS.426         	5.35           	0.006
MS.427         	5.338          	0.002
MS.428         	5.327          	0.002
DERIVED EXCITABILITY VARIABLES
Program = QTracP 3/4/2020
Threshold method = 6 (optimised for CAP, using data for present condition only)
SR method = 1 (using actual data values)
6.                 	0.000               	Peak response\(mV)
9.                 	36.6                	Temperature ( C)
17.                	47                  	Age (years)
18.                	1                   	Sex (M=1, F=2)

EXTRA VARIABLES

MScPeak(mV) = 11.36
MScS5(mA) = 6.96
MScS50(mA) = 8.33
MScS95(mA) = 10.4
MScNSteps = 2
MScSteps(%) = 4.7
MScStepMax(%) = 2.6
MScD50 = 43
MScSlope = 5.95
MSFPeakAmp(mV) = 11.4
MSFNUnits = 179
MSFMeanUnitAmp(uV) = 63.4
MSFHuntTime(m) = 2.48
MSFError(%) = 5.88
MSFNLarge = 50.34
MSFMedianAmp(%) = 0.424
MSFMedianAmp(mV) = 0.0481
MSFHalfAmpAmp(%) = 0.586
MSFHalfAmpAmp(mV) = 0.0665
MSFLargestAmp(%) = 2.79
MSFLargestAmp(mV) = 0.317
MSFMeanRS(%) = 2
MSFOpts = 10106121
MScDuration(min) = 3.8
MSFTraces = 397
MSFSizeLimit(uV) = 28.4
MSFLimitType = 1
MSFSmallestAmp(uV) = 29.4

EXTRA WAVEFORMS


!MScan Model
!179
	1	5.99	0.36	2
	2	6.33	0.57	2
	3	6.4	0.35	2
	4	6.49	0.56	2
	5	6.58	0.46	2
	6	6.67	0.39	2
	7	6.73	0.29	2
	8	6.81	0.41	2
	9	6.86	0.29	2
	10	6.9	0.41	2
	11	6.96	0.82	2
	12	7	0.77	2
	13	7.02	0.67	2
	14	7.04	1.05	2
	15	7.07	1.09	2
	16	7.1	1.07	2
	17	7.14	1.41	2
	18	7.18	1.86	2
	19	7.21	0.92	2
	20	7.22	0.34	2
	21	7.23	0.39	2
	22	7.24	0.39	2
	23	7.25	0.4	2
	24	7.26	0.44	2
	25	7.27	0.42	2
	26	7.29	0.41	2
	27	7.3	0.4	2
	28	7.31	0.35	2
	29	7.32	0.33	2
	30	7.33	0.35	2
	31	7.34	0.37	2
	32	7.35	0.37	2
	33	7.36	0.58	2
	34	7.38	0.62	2
	35	7.4	0.59	2
	36	7.42	0.39	2
	37	7.43	0.34	2
	38	7.44	0.33	2
	39	7.45	0.32	2
	40	7.47	0.32	2
	41	7.48	0.29	2
	42	7.49	0.28	2
	43	7.5	0.32	2
	44	7.52	0.47	2
	45	7.54	0.52	2
	46	7.56	0.49	2
	47	7.57	0.31	2
	48	7.58	0.31	2
	49	7.6	0.31	2
	50	7.61	0.32	2
	51	7.62	0.32	2
	52	7.63	0.34	2
	53	7.65	0.34	2
	54	7.66	0.53	2
	55	7.69	0.73	2
	56	7.72	0.65	2
	57	7.75	0.72	2
	58	7.78	0.7	2
	59	7.81	0.58	2
	60	7.83	0.58	2
	61	7.85	0.74	2
	62	7.87	0.87	2
	63	7.9	1.06	2
	64	7.92	0.77	2
	65	7.95	1.05	2
	66	7.98	1.9	2
	67	8.05	2.79	2
	68	8.13	2.57	2
	69	8.15	0.61	2
	70	8.17	0.57	2
	71	8.19	0.79	2
	72	8.2	0.32	2
	73	8.21	0.32	2
	74	8.22	0.32	2
	75	8.22	0.3	2
	76	8.24	0.47	2
	77	8.25	0.28	2
	78	8.26	0.28	2
	79	8.26	0.28	2
	80	8.27	0.28	2
	81	8.28	0.28	2
	82	8.29	0.28	2
	83	8.3	0.37	2
	84	8.31	0.36	2
	85	8.32	0.32	2
	86	8.33	0.4	2
	87	8.34	0.33	2
	88	8.36	0.28	2
	89	8.37	0.29	2
	90	8.38	0.29	2
	91	8.39	0.29	2
	92	8.4	0.36	2
	93	8.41	0.33	2
	94	8.43	0.31	2
	95	8.44	0.32	2
	96	8.45	0.32	2
	97	8.47	0.54	2
	98	8.5	0.65	2
	99	8.53	0.62	2
	100	8.54	0.26	2
	101	8.55	0.26	2
	102	8.56	0.31	2
	103	8.57	0.42	2
	104	8.58	0.44	2
	105	8.59	0.45	2
	106	8.61	0.47	2
	107	8.62	0.47	2
	108	8.63	0.45	2
	109	8.64	0.32	2
	110	8.64	0.32	2
	111	8.65	0.31	2
	112	8.66	0.3	2
	113	8.67	0.29	2
	114	8.67	0.29	2
	115	8.68	0.31	2
	116	8.69	0.37	2
	117	8.7	0.37	2
	118	8.71	0.39	2
	119	8.71	0.39	2
	120	8.72	0.39	2
	121	8.73	0.39	2
	122	8.74	0.42	2
	123	8.75	0.42	2
	124	8.76	0.4	2
	125	8.76	0.4	2
	126	8.77	0.38	2
	127	8.78	0.37	2
	128	8.79	0.37	2
	129	8.8	0.37	2
	130	8.81	0.43	2
	131	8.82	0.59	2
	132	8.83	0.54	2
	133	8.84	0.52	2
	134	8.86	0.53	2
	135	8.87	0.61	2
	136	8.89	0.75	2
	137	8.9	0.76	2
	138	8.92	0.82	2
	139	8.94	0.81	2
	140	8.95	0.71	2
	141	8.97	0.66	2
	142	8.99	0.67	2
	143	9	0.58	2
	144	9.02	0.4	2
	145	9.04	0.43	2
	146	9.05	0.54	2
	147	9.07	0.55	2
	148	9.09	0.55	2
	149	9.1	0.59	2
	150	9.12	0.53	2
	151	9.14	0.38	2
	152	9.16	0.33	2
	153	9.18	0.43	2
	154	9.2	0.44	2
	155	9.22	0.45	2
	156	9.27	1	2
	157	9.33	0.75	2
	158	9.38	0.41	2
	159	9.42	0.48	2
	160	9.54	0.91	2
	161	9.6	0.82	2
	162	9.64	0.47	2
	163	9.68	0.5	2
	164	9.82	1.98	2
	165	9.89	0.83	2
	166	9.91	0.27	2
	167	9.94	0.27	2
	168	9.96	0.29	2
	169	9.98	0.41	2
	170	10.01	0.54	2
	171	10.07	0.94	2
	172	10.13	0.88	2
	173	10.2	0.84	2
	174	10.33	1.75	2
	175	10.48	1.36	2
	176	10.58	1.04	2
	177	10.72	1.62	2
	178	10.8	0.52	2
	179	10.96	0.67	2

