File:              	C:\Qtrac\Data\Daniel M Sørensen\MScan multicentre study\Data from centres\Edmonton\MSCC00205A.QZD
Name:              	CA.EDM.NC.3.1
Protocol:          	MSCAN-R2
Date:              	5/2/20
Start time:        	09:26:19
Age:               	47
Sex:               	M
Temperature:       	34.2
S/R sites:         	Median Wr-APB
NC/disease:        	NC
Operator:          	KJ
Comments:
M-SCAN DATA (6.1-1.8m)
Scanpts: 69, 74, 456, 478
Stim. (mA)     	Amp. (mV)
MS.1           	10.5           	12.943
MS.2           	10.5           	12.953
MS.3           	10.5           	12.931
MS.4           	10.5           	12.858
MS.5           	10.5           	12.832
MS.6           	10.5           	12.848
MS.7           	10.5           	12.852
MS.8           	10.5           	12.85
MS.9           	10.5           	12.856
MS.10          	10.5           	12.802
MS.11          	10.5           	12.824
MS.12          	10.5           	12.816
MS.13          	10.5           	12.832
MS.14          	10.5           	12.812
MS.15          	10.5           	12.778
MS.16          	10.5           	12.748
MS.17          	10.5           	12.75
MS.18          	10.5           	12.736
MS.19          	10.5           	12.663
MS.20          	10.5           	12.693
MS.21          	10.5           	12.693
MS.22          	10.5           	12.707
MS.23          	10.5           	12.76
MS.24          	10.457         	12.734
MS.25          	10.438         	12.717
MS.26          	10.417         	12.764
MS.27          	10.395         	12.76
MS.28          	10.375         	12.766
MS.29          	10.355         	12.756
MS.30          	10.332         	12.756
MS.31          	10.312         	12.75
MS.32          	10.292         	12.754
MS.33          	10.273         	12.78
MS.34          	10.25          	12.782
MS.35          	10.23          	12.778
MS.36          	10.21          	12.744
MS.37          	10.19          	12.772
MS.38          	10.17          	12.778
MS.39          	10.15          	12.746
MS.40          	10.127         	12.768
MS.41          	10.108         	12.727
MS.42          	10.087         	12.74
MS.43          	10.068         	12.754
MS.44          	10.047         	12.758
MS.45          	10.028         	12.74
MS.46          	10.007         	12.752
MS.47          	9.988          	12.75
MS.48          	9.967          	12.742
MS.49          	9.948          	12.701
MS.50          	9.927          	12.729
MS.51          	9.907          	12.711
MS.52          	9.887          	12.734
MS.53          	9.867          	12.729
MS.54          	9.85           	12.723
MS.55          	9.83           	12.701
MS.56          	9.81           	12.685
MS.57          	9.79           	12.669
MS.58          	9.77           	12.695
MS.59          	9.75           	12.689
MS.60          	9.733          	12.685
MS.61          	9.712          	12.713
MS.62          	9.693          	12.732
MS.63          	9.672          	12.721
MS.64          	9.655          	12.701
MS.65          	9.635          	12.717
MS.66          	9.615          	12.717
MS.67          	9.595          	12.707
MS.68          	9.577          	12.703
MS.69          	9.557          	12.709
MS.70          	9.54           	12.727
MS.71          	9.52           	12.736
MS.72          	9.5            	12.723
MS.73          	9.483          	12.721
MS.74          	9.462          	12.721
MS.75          	9.445          	12.719
MS.76          	9.425          	12.703
MS.77          	9.405          	12.699
MS.78          	9.387          	12.715
MS.79          	9.367          	12.709
MS.80          	9.35           	12.703
MS.81          	9.332          	12.671
MS.82          	9.312          	12.707
MS.83          	9.295          	12.689
MS.84          	9.275          	12.701
MS.85          	9.257          	12.695
MS.86          	9.238          	12.695
MS.87          	9.22           	12.709
MS.88          	9.202          	12.711
MS.89          	9.182          	12.683
MS.90          	9.165          	12.673
MS.91          	9.148          	12.679
MS.92          	9.127          	12.665
MS.93          	9.11           	12.667
MS.94          	9.092          	12.667
MS.95          	9.073          	12.669
MS.96          	9.055          	12.669
MS.97          	9.037          	12.683
MS.98          	9.02           	12.659
MS.99          	9.002          	12.671
MS.100         	8.983          	12.671
MS.101         	8.965          	12.667
MS.102         	8.948          	12.689
MS.103         	8.93           	12.669
MS.104         	8.912          	12.673
MS.105         	8.895          	12.679
MS.106         	8.875          	12.697
MS.107         	8.858          	12.677
MS.108         	8.84           	12.659
MS.109         	8.823          	12.685
MS.110         	8.805          	12.669
MS.111         	8.787          	12.681
MS.112         	8.77           	12.673
MS.113         	8.752          	12.677
MS.114         	8.735          	12.687
MS.115         	8.717          	12.675
MS.116         	8.7            	12.699
MS.117         	8.682          	12.703
MS.118         	8.665          	12.631
MS.119         	8.648          	12.683
MS.120         	8.63           	12.673
MS.121         	8.615          	12.681
MS.122         	8.597          	12.631
MS.123         	8.58           	12.665
MS.124         	8.562          	12.641
MS.125         	8.545          	12.641
MS.126         	8.528          	12.693
MS.127         	8.51           	12.445
MS.128         	8.495          	12.482
MS.129         	8.477          	12.647
MS.130         	8.46           	12.709
MS.131         	8.443          	12.671
MS.132         	8.427          	12.47
MS.133         	8.41           	12.699
MS.134         	8.392          	12.729
MS.135         	8.375          	12.5
MS.136         	8.36           	12.492
MS.137         	8.342          	12.717
MS.138         	8.325          	12.512
MS.139         	8.31           	12.52
MS.140         	8.292          	12.502
MS.141         	8.275          	12.725
MS.142         	8.26           	12.486
MS.143         	8.242          	12.516
MS.144         	8.227          	12.488
MS.145         	8.21           	12.476
MS.146         	8.193          	12.522
MS.147         	8.177          	12.488
MS.148         	8.16           	12.528
MS.149         	8.145          	12.482
MS.150         	8.127          	12.693
MS.151         	8.113          	12.49
MS.152         	8.095          	12.478
MS.153         	8.08           	12.486
MS.154         	8.062          	12.319
MS.155         	8.047          	12.478
MS.156         	8.033          	12.399
MS.157         	8.015          	12.395
MS.158         	8              	12.413
MS.159         	7.982          	12.288
MS.160         	7.967          	12.103
MS.161         	7.952          	11.934
MS.162         	7.935          	12.309
MS.163         	7.92           	12.466
MS.164         	7.905          	12.077
MS.165         	7.887          	12.415
MS.166         	7.872          	12.18
MS.167         	7.857          	12.081
MS.168         	7.84           	12.071
MS.169         	7.825          	11.777
MS.170         	7.81           	12.305
MS.171         	7.795          	12.103
MS.172         	7.777          	12.278
MS.173         	7.762          	12.073
MS.174         	7.747          	11.739
MS.175         	7.732          	11.666
MS.176         	7.717          	11.739
MS.177         	7.7            	12.061
MS.178         	7.685          	11.686
MS.179         	7.67           	11.69
MS.180         	7.655          	11.757
MS.181         	7.64           	12.004
MS.182         	7.625          	12.047
MS.183         	7.61           	11.67
MS.184         	7.595          	11.724
MS.185         	7.58           	11.902
MS.186         	7.565          	11.577
MS.187         	7.547          	11.573
MS.188         	7.532          	11.271
MS.189         	7.517          	11.555
MS.190         	7.503          	11.402
MS.191         	7.487          	11.561
MS.192         	7.472          	11.394
MS.193         	7.457          	11.598
MS.194         	7.442          	11.688
MS.195         	7.43           	11.696
MS.196         	7.415          	11.577
MS.197         	7.4            	11.034
MS.198         	7.385          	11.35
MS.199         	7.37           	11.048
MS.200         	7.355          	10.957
MS.201         	7.34           	11.032
MS.202         	7.325          	11.06
MS.203         	7.31           	10.981
MS.204         	7.297          	10.792
MS.205         	7.282          	10.814
MS.206         	7.267          	10.832
MS.207         	7.253          	10.76
MS.208         	7.237          	10.709
MS.209         	7.222          	10.639
MS.210         	7.21           	10.737
MS.211         	7.195          	10.814
MS.212         	7.18           	10.484
MS.213         	7.165          	10.78
MS.214         	7.152          	10.53
MS.215         	7.137          	10.349
MS.216         	7.122          	10.121
MS.217         	7.11           	10.532
MS.218         	7.095          	10.079
MS.219         	7.08           	10.393
MS.220         	7.067          	10.274
MS.221         	7.052          	9.97
MS.222         	7.037          	10.151
MS.223         	7.025          	9.821
MS.224         	7.01           	9.998
MS.225         	6.995          	9.912
MS.226         	6.983          	9.99
MS.227         	6.967          	9.499
MS.228         	6.955          	9.052
MS.229         	6.94           	9.749
MS.230         	6.927          	9.084
MS.231         	6.912          	9.364
MS.232         	6.9            	9.09
MS.233         	6.885          	8.907
MS.234         	6.872          	8.786
MS.235         	6.858          	9.442
MS.236         	6.845          	8.943
MS.237         	6.83           	8.715
MS.238         	6.817          	9.098
MS.239         	6.802          	8.905
MS.240         	6.79           	8.884
MS.241         	6.775          	8.784
MS.242         	6.762          	8.353
MS.243         	6.75           	8.427
MS.244         	6.735          	8.582
MS.245         	6.722          	8.552
MS.246         	6.707          	8.405
MS.247         	6.695          	8.409
MS.248         	6.682          	8.278
MS.249         	6.668          	8.131
MS.250         	6.655          	8.057
MS.251         	6.642          	7.912
MS.252         	6.628          	8.051
MS.253         	6.615          	7.93
MS.254         	6.602          	7.593
MS.255         	6.59           	8.002
MS.256         	6.575          	7.99
MS.257         	6.562          	7.728
MS.258         	6.55           	7.692
MS.259         	6.537          	7.589
MS.260         	6.523          	7.738
MS.261         	6.51           	7.527
MS.262         	6.497          	7.473
MS.263         	6.485          	7.313
MS.264         	6.472          	7.122
MS.265         	6.457          	7.168
MS.266         	6.445          	7.287
MS.267         	6.432          	7.17
MS.268         	6.42           	7.132
MS.269         	6.407          	7.025
MS.270         	6.395          	6.713
MS.271         	6.382          	6.937
MS.272         	6.367          	6.731
MS.273         	6.355          	6.804
MS.274         	6.342          	6.919
MS.275         	6.33           	6.331
MS.276         	6.317          	6.314
MS.277         	6.305          	5.99
MS.278         	6.293          	6.167
MS.279         	6.28           	5.954
MS.280         	6.267          	6.087
MS.281         	6.255          	5.68
MS.282         	6.242          	6.522
MS.283         	6.23           	6.002
MS.284         	6.217          	5.956
MS.285         	6.205          	5.634
MS.286         	6.192          	5.541
MS.287         	6.18           	5.412
MS.288         	6.168          	5.493
MS.289         	6.155          	5.299
MS.290         	6.142          	5.311
MS.291         	6.13           	5.154
MS.292         	6.12           	5.144
MS.293         	6.108          	5.134
MS.294         	6.095          	5.207
MS.295         	6.082          	4.751
MS.296         	6.07           	5.116
MS.297         	6.057          	4.721
MS.298         	6.045          	4.669
MS.299         	6.035          	4.981
MS.300         	6.023          	4.802
MS.301         	6.01           	4.179
MS.302         	5.997          	4.8
MS.303         	5.985          	4.216
MS.304         	5.972          	4.3
MS.305         	5.963          	4.51
MS.306         	5.95           	3.974
MS.307         	5.938          	3.801
MS.308         	5.925          	3.797
MS.309         	5.915          	3.756
MS.310         	5.902          	4.381
MS.311         	5.89           	4.026
MS.312         	5.88           	3.38
MS.313         	5.867          	3.702
MS.314         	5.855          	3.362
MS.315         	5.842          	3.642
MS.316         	5.832          	3.515
MS.317         	5.82           	2.864
MS.318         	5.81           	3.176
MS.319         	5.797          	3.14
MS.320         	5.785          	2.731
MS.321         	5.775          	2.737
MS.322         	5.762          	2.659
MS.323         	5.75           	2.479
MS.324         	5.74           	2.616
MS.325         	5.727          	2.385
MS.326         	5.717          	2.252
MS.327         	5.705          	2.316
MS.328         	5.695          	2.411
MS.329         	5.682          	2.492
MS.330         	5.67           	2.208
MS.331         	5.66           	2.093
MS.332         	5.648          	2.165
MS.333         	5.637          	1.988
MS.334         	5.625          	2.05
MS.335         	5.615          	1.99
MS.336         	5.602          	1.787
MS.337         	5.592          	1.801
MS.338         	5.58           	1.807
MS.339         	5.57           	1.787
MS.340         	5.557          	1.559
MS.341         	5.547          	1.551
MS.342         	5.537          	1.672
MS.343         	5.525          	1.434
MS.344         	5.515          	1.577
MS.345         	5.503          	1.462
MS.346         	5.492          	1.456
MS.347         	5.483          	1.486
MS.348         	5.47           	1.178
MS.349         	5.46           	1.219
MS.350         	5.447          	1.275
MS.351         	5.438          	1.049
MS.352         	5.427          	1.106
MS.353         	5.415          	1.063
MS.354         	5.405          	1.2
MS.355         	5.395          	1.037
MS.356         	5.382          	1.12
MS.357         	5.372          	1.025
MS.358         	5.362          	0.963
MS.359         	5.352          	0.933
MS.360         	5.34           	0.804
MS.361         	5.33           	0.965
MS.362         	5.32           	0.92
MS.363         	5.31           	0.878
MS.364         	5.297          	0.681
MS.365         	5.287          	0.786
MS.366         	5.277          	0.725
MS.367         	5.267          	0.761
MS.368         	5.255          	0.604
MS.369         	5.245          	0.721
MS.370         	5.235          	0.775
MS.371         	5.225          	0.669
MS.372         	5.215          	0.707
MS.373         	5.202          	0.697
MS.374         	5.193          	0.558
MS.375         	5.182          	0.568
MS.376         	5.172          	0.463
MS.377         	5.162          	0.415
MS.378         	5.152          	0.415
MS.379         	5.142          	0.427
MS.380         	5.132          	0.387
MS.381         	5.12           	0.451
MS.382         	5.11           	0.411
MS.383         	5.1            	0.338
MS.384         	5.09           	0.371
MS.385         	5.08           	0.411
MS.386         	5.07           	0.314
MS.387         	5.06           	0.387
MS.388         	5.05           	0.296
MS.389         	5.04           	0.33
MS.390         	5.03           	0.272
MS.391         	5.02           	0.28
MS.392         	5.01           	0.222
MS.393         	5              	0.246
MS.394         	4.99           	0.22
MS.395         	4.98           	0.322
MS.396         	4.97           	0.32
MS.397         	4.96           	0.264
MS.398         	4.95           	0.203
MS.399         	4.94           	0.191
MS.400         	4.93           	0.276
MS.401         	4.92           	0.179
MS.402         	4.91           	0.173
MS.403         	4.9            	0.167
MS.404         	4.89           	0.211
MS.405         	4.88           	0.175
MS.406         	4.872          	0.161
MS.407         	4.862          	0.153
MS.408         	4.852          	0.173
MS.409         	4.842          	0.125
MS.410         	4.832          	0.143
MS.411         	4.822          	0.093
MS.412         	4.812          	0.113
MS.413         	4.802          	0.093
MS.414         	4.795          	0.085
MS.415         	4.785          	0.089
MS.416         	4.775          	0.131
MS.417         	4.765          	0.099
MS.418         	4.755          	0.109
MS.419         	4.747          	0.091
MS.420         	4.737          	0.085
MS.421         	4.727          	0.089
MS.422         	4.717          	0.089
MS.423         	4.707          	0.07
MS.424         	4.7            	0.066
MS.425         	4.69           	0.091
MS.426         	4.68           	0.026
MS.427         	4.67           	0.028
MS.428         	4.662          	0.091
MS.429         	4.652          	0.089
MS.430         	4.642          	0.073
MS.431         	4.635          	0.052
MS.432         	4.625          	0.091
MS.433         	4.615          	0.03
MS.434         	4.605          	0.07
MS.435         	4.597          	-0.002
MS.436         	4.588          	0.032
MS.437         	4.577          	0.032
MS.438         	4.57           	0.03
MS.439         	4.56           	0.000
MS.440         	4.55           	0.03
MS.441         	4.543          	0.002
MS.442         	4.532          	0.03
MS.443         	4.525          	-0.002
MS.444         	4.515          	0.03
MS.445         	4.505          	0.03
MS.446         	4.497          	-0.002
MS.447         	4.487          	0.03
MS.448         	4.48           	0.000
MS.449         	4.47           	0.002
MS.450         	4.46           	0.000
MS.451         	4.452          	0.000
MS.452         	4.443          	0.000
MS.453         	4.435          	0.000
MS.454         	4.425          	0.002
MS.455         	4.418          	0.004
MS.456         	4.407          	-0.002
MS.457         	4.4            	0.002
MS.458         	4.39           	0.000
MS.459         	4.382          	0.000
MS.460         	4.372          	0.000
MS.461         	4.365          	0.000
MS.462         	4.355          	0.026
MS.463         	4.347          	0.000
MS.464         	4.338          	0.002
MS.465         	4.33           	0.002
MS.466         	4.32           	-0.002
MS.467         	4.312          	0.000
MS.468         	4.302          	0.002
MS.469         	4.295          	0.002
MS.470         	4.285          	0.002
MS.471         	4.277          	-0.002
MS.472         	4.27           	0.000
MS.473         	4.26           	0.000
MS.474         	4.253          	0.000
MS.475         	4.242          	0.000
MS.476         	4.235          	0.000
MS.477         	4.227          	0.000
MS.478         	4.217          	-0.002
DERIVED EXCITABILITY VARIABLES
Program = QTracP 3/4/2020
Threshold method = 6 (optimised for CAP, using data for present condition only)
SR method = 1 (using actual data values)
6.                 	0.000               	Peak response\(mV)
9.                 	34.2                	Temperature ( C)
17.                	47                  	Age (years)
18.                	1                   	Sex (M=1, F=2)

EXTRA VARIABLES

MScPeak(mV) = 12.81
MScS5(mA) = 5.24
MScS50(mA) = 6.27
MScS95(mA) = 7.86
MScNSteps = 3
MScSteps(%) = 6.4
MScStepMax(%) = 2.2
MScD50 = 44
MScSlope = 5.58
MSFPeakAmp(mV) = 12.7
MSFNUnits = 144
MSFMeanUnitAmp(uV) = 88.3
MSFHuntTime(m) = 3.16
MSFError(%) = 5.95
MSFNLarge = 34.34
MSFMedianAmp(%) = 0.506
MSFMedianAmp(mV) = 0.0644
MSFHalfAmpAmp(%) = 0.766
MSFHalfAmpAmp(mV) = 0.0974
MSFLargestAmp(%) = 3.29
MSFLargestAmp(mV) = 0.418
MSFMeanRS(%) = 2
MSFOpts = 10106121
MScDuration(min) = 4.3
MSFTraces = 410
MSFSizeLimit(uV) = 31.8
MSFLimitType = 1
MSFSmallestAmp(uV) = 32.2

EXTRA WAVEFORMS


!MScan Model
!144
	1	4.59	0.27	2
	2	4.77	0.48	2
	3	4.85	0.36	2
	4	4.89	0.34	2
	5	4.97	0.44	2
	6	5.05	0.59	2
	7	5.08	0.31	2
	8	5.14	0.69	2
	9	5.16	0.51	2
	10	5.19	0.47	2
	11	5.2	0.26	2
	12	5.25	0.88	2
	13	5.28	0.36	2
	14	5.29	0.25	2
	15	5.31	0.43	2
	16	5.33	0.4	2
	17	5.34	0.28	2
	18	5.36	0.42	2
	19	5.39	0.56	2
	20	5.42	0.43	2
	21	5.44	0.49	2
	22	5.45	0.4	2
	23	5.46	0.33	2
	24	5.47	0.27	2
	25	5.47	0.25	2
	26	5.48	0.25	2
	27	5.49	0.28	2
	28	5.51	0.5	2
	29	5.51	0.28	2
	30	5.52	0.28	2
	31	5.54	0.43	2
	32	5.55	0.38	2
	33	5.56	0.49	2
	34	5.58	0.51	2
	35	5.59	0.5	2
	36	5.6	0.39	2
	37	5.6	0.26	2
	38	5.62	0.56	2
	39	5.63	0.72	2
	40	5.65	0.74	2
	41	5.67	0.47	2
	42	5.68	0.45	2
	43	5.69	0.27	2
	44	5.7	0.27	2
	45	5.71	0.36	2
	46	5.72	0.44	2
	47	5.73	0.49	2
	48	5.74	0.42	2
	49	5.74	0.42	2
	50	5.75	0.37	2
	51	5.76	0.3	2
	52	5.76	0.31	2
	53	5.77	0.31	2
	54	5.78	0.35	2
	55	5.78	0.41	2
	56	5.79	0.45	2
	57	5.8	0.46	2
	58	5.82	1.56	2
	59	5.84	1.05	2
	60	5.84	0.7	2
	61	5.86	1.43	2
	62	5.9	1.7	2
	63	5.92	1.12	2
	64	5.94	0.66	2
	65	5.95	0.59	2
	66	5.96	0.5	2
	67	5.98	0.96	2
	68	5.99	1.14	2
	69	6.01	1.16	2
	70	6.04	1.06	2
	71	6.05	0.81	2
	72	6.07	0.74	2
	73	6.08	0.74	2
	74	6.1	0.62	2
	75	6.11	0.39	2
	76	6.12	0.43	2
	77	6.13	0.29	2
	78	6.13	0.27	2
	79	6.14	0.48	2
	80	6.15	0.26	2
	81	6.17	0.9	2
	82	6.2	1.28	2
	83	6.21	0.26	2
	84	6.23	1.28	2
	85	6.27	2.54	2
	86	6.29	0.77	2
	87	6.3	0.45	2
	88	6.31	0.4	2
	89	6.32	0.33	2
	90	6.33	0.32	2
	91	6.34	0.68	2
	92	6.35	0.68	2
	93	6.38	1.83	2
	94	6.41	1.43	2
	95	6.43	0.57	2
	96	6.44	0.5	2
	97	6.45	0.39	2
	98	6.46	0.41	2
	99	6.46	0.3	2
	100	6.47	0.3	2
	101	6.48	0.3	2
	102	6.49	0.42	2
	103	6.51	0.55	2
	104	6.52	0.52	2
	105	6.54	0.62	2
	106	6.56	0.7	2
	107	6.58	0.64	2
	108	6.6	0.56	2
	109	6.62	0.52	2
	110	6.63	0.41	2
	111	6.64	0.38	2
	112	6.66	0.47	2
	113	6.67	0.33	2
	114	6.68	0.51	2
	115	6.69	0.6	2
	116	6.7	0.63	2
	117	6.72	0.56	2
	118	6.73	0.54	2
	119	6.74	0.56	2
	120	6.77	1.09	2
	121	6.88	2.98	2
	122	6.9	0.55	2
	123	6.92	0.61	2
	124	6.93	0.64	2
	125	6.95	1.34	2
	126	6.98	1.6	2
	127	7.01	1.52	2
	128	7.04	1.11	2
	129	7.06	0.92	2
	130	7.09	0.92	2
	131	7.12	1.11	2
	132	7.16	0.88	2
	133	7.21	1.96	2
	134	7.25	3.29	2
	135	7.29	1.48	2
	136	7.33	0.52	2
	137	7.35	0.59	2
	138	7.37	0.71	2
	139	7.69	1.78	2
	140	7.82	1.77	2
	141	7.86	2.3	2
	142	8.04	0.44	2
	143	8.36	1.57	2
	144	8.61	0.61	2

