File:              	C:\Qtrac\Data\Daniel M Sørensen\MScan multicentre study\Data from centres\Edmonton\Processed data\MSCC00930A.QZD
Name:              	CA.EDM.NC.9.1
Protocol:          	MSCAN-R2
Date:              	30/9/20
Start time:        	11:06:05
Age:               	23
Sex:               	F
Temperature:       	30.2
S/R sites:         	APB
NC/disease:        	NC
Operator:          	KJ
Comments:
M-SCAN DATA (9.3-3.7m)
Scanpts: 119, 124, 478, 486
Stim. (mA)     	Amp. (mV)
MS.1           	17             	10.088
MS.2           	17             	10.065
MS.3           	17             	10.078
MS.4           	17             	10.087
MS.5           	17             	10.023
MS.6           	17             	10.021
MS.7           	17             	10.027
MS.8           	17             	10.07
MS.9           	17             	10.032
MS.10          	17             	10.038
MS.11          	17             	10.007
MS.12          	17             	10.026
MS.13          	17             	10.042
MS.14          	17             	10.015
MS.15          	17             	10.009
MS.16          	17             	10.001
MS.17          	17             	10.027
MS.18          	17             	10.017
MS.19          	17             	10.002
MS.20          	17             	10.007
MS.21          	17             	10.011
MS.22          	17             	10.022
MS.23          	17             	10.033
MS.24          	16.897         	10.002
MS.25          	16.865         	10.018
MS.26          	16.83          	10.031
MS.27          	16.797         	10.039
MS.28          	16.762         	10.026
MS.29          	16.73          	10.02
MS.30          	16.698         	10.028
MS.31          	16.663         	10.023
MS.32          	16.63          	10.038
MS.33          	16.597         	10.033
MS.34          	16.562         	10.024
MS.35          	16.53          	10.007
MS.36          	16.497         	10.018
MS.37          	16.465         	10.027
MS.38          	16.432         	10.027
MS.39          	16.4           	10.038
MS.40          	16.365         	10.052
MS.41          	16.333         	10.018
MS.42          	16.3           	10.013
MS.43          	16.267         	10.034
MS.44          	16.235         	10.037
MS.45          	16.202         	10.038
MS.46          	16.17          	10.045
MS.47          	16.137         	10.043
MS.48          	16.108         	10.046
MS.49          	16.075         	10.031
MS.50          	16.042         	10.044
MS.51          	16.01          	10.055
MS.52          	15.977         	10.044
MS.53          	15.945         	10.026
MS.54          	15.915         	10.032
MS.55          	15.882         	10.023
MS.56          	15.85          	10.043
MS.57          	15.82          	10.035
MS.58          	15.787         	10.066
MS.59          	15.755         	10.038
MS.60          	15.725         	10.029
MS.61          	15.693         	10.034
MS.62          	15.662         	10.056
MS.63          	15.63          	10.063
MS.64          	15.6           	10.048
MS.65          	15.568         	10.043
MS.66          	15.537         	10.037
MS.67          	15.505         	10.063
MS.68          	15.475         	10.054
MS.69          	15.445         	10.052
MS.70          	15.412         	10.042
MS.71          	15.382         	10.055
MS.72          	15.352         	10.046
MS.73          	15.32          	10.062
MS.74          	15.29          	10.052
MS.75          	15.26          	10.032
MS.76          	15.23          	10.027
MS.77          	15.197         	10.018
MS.78          	15.167         	10.043
MS.79          	15.137         	10.05
MS.80          	15.108         	10.04
MS.81          	15.077         	10.031
MS.82          	15.047         	10.044
MS.83          	15.017         	10.048
MS.84          	14.987         	10.048
MS.85          	14.957         	10.042
MS.86          	14.927         	10.042
MS.87          	14.898         	10.051
MS.88          	14.867         	10.057
MS.89          	14.837         	10.05
MS.90          	14.807         	10.043
MS.91          	14.78          	10.045
MS.92          	14.75          	10.046
MS.93          	14.72          	10.057
MS.94          	14.69          	10.04
MS.95          	14.662         	10.054
MS.96          	14.632         	10.054
MS.97          	14.602         	10.034
MS.98          	14.572         	10.046
MS.99          	14.545         	10.049
MS.100         	14.515         	10.049
MS.101         	14.487         	10.05
MS.102         	14.457         	10.045
MS.103         	14.427         	10.071
MS.104         	14.4           	10.092
MS.105         	14.37          	10.079
MS.106         	14.342         	10.094
MS.107         	14.312         	10.077
MS.108         	14.285         	10.105
MS.109         	14.257         	10.098
MS.110         	14.227         	10.074
MS.111         	14.2           	10.094
MS.112         	14.17          	10.067
MS.113         	14.142         	10.085
MS.114         	14.115         	10.079
MS.115         	14.087         	10.09
MS.116         	14.057         	10.065
MS.117         	14.03          	10.071
MS.118         	14.002         	10.099
MS.119         	13.975         	10.071
MS.120         	13.945         	10.103
MS.121         	13.917         	10.094
MS.122         	13.89          	10.09
MS.123         	13.862         	10.11
MS.124         	13.835         	10.065
MS.125         	13.807         	10.079
MS.126         	13.78          	10.094
MS.127         	13.752         	10.109
MS.128         	13.725         	10.103
MS.129         	13.697         	10.094
MS.130         	13.67          	10.079
MS.131         	13.642         	10.093
MS.132         	13.615         	10.101
MS.133         	13.587         	10.067
MS.134         	13.56          	10.059
MS.135         	13.535         	10.063
MS.136         	13.507         	10.098
MS.137         	13.48          	10.098
MS.138         	13.452         	10.093
MS.139         	13.425         	10.057
MS.140         	13.4           	10.074
MS.141         	13.372         	10.07
MS.142         	13.345         	10.065
MS.143         	13.32          	10.061
MS.144         	13.292         	10.057
MS.145         	13.265         	10.088
MS.146         	13.24          	10.079
MS.147         	13.212         	10.066
MS.148         	13.188         	10.073
MS.149         	13.16          	10.073
MS.150         	13.135         	10.081
MS.151         	13.108         	10.068
MS.152         	13.082         	10.067
MS.153         	13.055         	10.087
MS.154         	13.03          	9.929
MS.155         	13.002         	10.071
MS.156         	12.977         	9.908
MS.157         	12.952         	9.893
MS.158         	12.925         	9.917
MS.159         	12.9           	9.899
MS.160         	12.875         	10.038
MS.161         	12.847         	9.912
MS.162         	12.822         	9.904
MS.163         	12.797         	9.904
MS.164         	12.773         	9.901
MS.165         	12.745         	9.908
MS.166         	12.72          	9.882
MS.167         	12.695         	9.899
MS.168         	12.67          	9.861
MS.169         	12.645         	9.883
MS.170         	12.62          	9.857
MS.171         	12.595         	9.884
MS.172         	12.568         	9.733
MS.173         	12.542         	9.722
MS.174         	12.517         	9.724
MS.175         	12.492         	9.727
MS.176         	12.467         	9.872
MS.177         	12.443         	9.866
MS.178         	12.42          	9.722
MS.179         	12.395         	9.725
MS.180         	12.37          	9.714
MS.181         	12.345         	9.62
MS.182         	12.32          	9.684
MS.183         	12.295         	9.613
MS.184         	12.27          	9.666
MS.185         	12.245         	9.602
MS.186         	12.222         	9.562
MS.187         	12.197         	9.589
MS.188         	12.172         	9.666
MS.189         	12.148         	9.688
MS.190         	12.125         	9.563
MS.191         	12.1           	9.537
MS.192         	12.075         	9.497
MS.193         	12.052         	9.482
MS.194         	12.028         	9.561
MS.195         	12.002         	9.485
MS.196         	11.98          	9.423
MS.197         	11.955         	9.365
MS.198         	11.932         	9.364
MS.199         	11.907         	9.456
MS.200         	11.885         	9.449
MS.201         	11.86          	9.432
MS.202         	11.837         	9.469
MS.203         	11.812         	9.442
MS.204         	11.79          	9.426
MS.205         	11.765         	9.465
MS.206         	11.742         	9.404
MS.207         	11.72          	9.399
MS.208         	11.695         	9.329
MS.209         	11.672         	9.36
MS.210         	11.65          	9.343
MS.211         	11.625         	9.32
MS.212         	11.602         	9.427
MS.213         	11.58          	9.213
MS.214         	11.555         	9.292
MS.215         	11.532         	9.315
MS.216         	11.51          	9.307
MS.217         	11.488         	9.25
MS.218         	11.465         	9.071
MS.219         	11.44          	9.084
MS.220         	11.417         	9.288
MS.221         	11.395         	8.901
MS.222         	11.372         	9.106
MS.223         	11.35          	9.089
MS.224         	11.327         	9.017
MS.225         	11.305         	9.025
MS.226         	11.282         	9.039
MS.227         	11.26          	8.895
MS.228         	11.238         	8.932
MS.229         	11.215         	9.072
MS.230         	11.193         	8.765
MS.231         	11.17          	8.933
MS.232         	11.148         	8.641
MS.233         	11.125         	8.467
MS.234         	11.102         	8.658
MS.235         	11.08          	8.658
MS.236         	11.057         	8.39
MS.237         	11.037         	8.48
MS.238         	11.015         	8.501
MS.239         	10.992         	8.306
MS.240         	10.97          	8.221
MS.241         	10.948         	8.353
MS.242         	10.927         	8.201
MS.243         	10.905         	7.886
MS.244         	10.882         	7.958
MS.245         	10.863         	8.142
MS.246         	10.84          	8.014
MS.247         	10.818         	7.965
MS.248         	10.797         	8.037
MS.249         	10.775         	7.618
MS.250         	10.752         	8.058
MS.251         	10.733         	7.621
MS.252         	10.71          	7.678
MS.253         	10.69          	7.65
MS.254         	10.667         	7.551
MS.255         	10.648         	7.537
MS.256         	10.625         	7.3
MS.257         	10.605         	7.256
MS.258         	10.582         	7.185
MS.259         	10.562         	7.278
MS.260         	10.54          	7.141
MS.261         	10.52          	6.962
MS.262         	10.497         	7.003
MS.263         	10.477         	6.454
MS.264         	10.457         	6.94
MS.265         	10.435         	6.621
MS.266         	10.415         	6.077
MS.267         	10.395         	6.309
MS.268         	10.372         	5.874
MS.269         	10.352         	6.036
MS.270         	10.332         	6.373
MS.271         	10.31          	5.972
MS.272         	10.29          	5.742
MS.273         	10.27          	6.193
MS.274         	10.25          	5.902
MS.275         	10.23          	5.715
MS.276         	10.207         	5.857
MS.277         	10.188         	5.75
MS.278         	10.167         	5.536
MS.279         	10.148         	5.21
MS.280         	10.127         	5.171
MS.281         	10.108         	5.071
MS.282         	10.087         	5.011
MS.283         	10.068         	5.195
MS.284         	10.047         	5.518
MS.285         	10.028         	5.341
MS.286         	10.005         	5.236
MS.287         	9.988          	5.221
MS.288         	9.967          	4.901
MS.289         	9.948          	4.747
MS.290         	9.927          	4.692
MS.291         	9.907          	4.905
MS.292         	9.887          	4.879
MS.293         	9.867          	4.86
MS.294         	9.847          	4.612
MS.295         	9.827          	4.315
MS.296         	9.807          	4.401
MS.297         	9.787          	4.34
MS.298         	9.77           	4.355
MS.299         	9.75           	4.263
MS.300         	9.73           	4.321
MS.301         	9.71           	4.16
MS.302         	9.69           	4.131
MS.303         	9.672          	4.047
MS.304         	9.653          	4.083
MS.305         	9.632          	3.99
MS.306         	9.615          	3.846
MS.307         	9.595          	3.921
MS.308         	9.575          	3.867
MS.309         	9.557          	3.732
MS.310         	9.537          	3.846
MS.311         	9.517          	3.733
MS.312         	9.5            	3.618
MS.313         	9.48           	3.348
MS.314         	9.462          	3.344
MS.315         	9.443          	3.258
MS.316         	9.422          	3.143
MS.317         	9.405          	3.157
MS.318         	9.385          	2.93
MS.319         	9.367          	3.068
MS.320         	9.347          	3.062
MS.321         	9.33           	2.993
MS.322         	9.31           	2.727
MS.323         	9.292          	2.898
MS.324         	9.275          	2.458
MS.325         	9.255          	2.581
MS.326         	9.238          	2.723
MS.327         	9.217          	2.562
MS.328         	9.2            	2.582
MS.329         	9.182          	2.581
MS.330         	9.162          	2.476
MS.331         	9.145          	2.258
MS.332         	9.127          	1.941
MS.333         	9.108          	2.119
MS.334         	9.09           	1.978
MS.335         	9.073          	1.655
MS.336         	9.055          	1.83
MS.337         	9.035          	1.385
MS.338         	9.017          	1.451
MS.339         	9              	1.809
MS.340         	8.983          	1.359
MS.341         	8.965          	1.829
MS.342         	8.945          	1.257
MS.343         	8.927          	1.388
MS.344         	8.91           	1.234
MS.345         	8.892          	1.326
MS.346         	8.875          	1.036
MS.347         	8.858          	1.283
MS.348         	8.84           	0.967
MS.349         	8.823          	0.87
MS.350         	8.805          	0.898
MS.351         	8.787          	0.909
MS.352         	8.77           	0.84
MS.353         	8.752          	0.875
MS.354         	8.735          	0.674
MS.355         	8.717          	0.664
MS.356         	8.7            	0.732
MS.357         	8.682          	0.69
MS.358         	8.665          	0.664
MS.359         	8.648          	0.605
MS.360         	8.63           	0.598
MS.361         	8.613          	0.574
MS.362         	8.595          	0.693
MS.363         	8.577          	0.579
MS.364         	8.56           	0.514
MS.365         	8.545          	0.463
MS.366         	8.528          	0.551
MS.367         	8.51           	0.632
MS.368         	8.492          	0.469
MS.369         	8.475          	0.449
MS.370         	8.46           	0.479
MS.371         	8.443          	0.536
MS.372         	8.425          	0.377
MS.373         	8.408          	0.466
MS.374         	8.392          	0.459
MS.375         	8.375          	0.449
MS.376         	8.358          	0.338
MS.377         	8.34           	0.323
MS.378         	8.325          	0.437
MS.379         	8.307          	0.381
MS.380         	8.292          	0.341
MS.381         	8.275          	0.3
MS.382         	8.257          	0.3
MS.383         	8.242          	0.312
MS.384         	8.225          	0.365
MS.385         	8.21           	0.244
MS.386         	8.193          	0.332
MS.387         	8.175          	0.248
MS.388         	8.16           	0.297
MS.389         	8.142          	0.299
MS.390         	8.127          	0.289
MS.391         	8.11           	0.267
MS.392         	8.095          	0.24
MS.393         	8.077          	0.209
MS.394         	8.062          	0.225
MS.395         	8.047          	0.162
MS.396         	8.03           	0.272
MS.397         	8.015          	0.106
MS.398         	7.997          	0.214
MS.399         	7.982          	0.187
MS.400         	7.965          	0.206
MS.401         	7.95           	0.096
MS.402         	7.935          	0.125
MS.403         	7.918          	0.203
MS.404         	7.902          	0.096
MS.405         	7.887          	0.204
MS.406         	7.87           	0.099
MS.407         	7.855          	0.098
MS.408         	7.84           	0.098
MS.409         	7.825          	0.099
MS.410         	7.807          	0.098
MS.411         	7.793          	0.098
MS.412         	7.777          	0.094
MS.413         	7.762          	0.1
MS.414         	7.747          	0.095
MS.415         	7.73           	0.096
MS.416         	7.715          	0.096
MS.417         	7.7            	0.098
MS.418         	7.685          	0.098
MS.419         	7.67           	0.065
MS.420         	7.655          	0.093
MS.421         	7.637          	0.096
MS.422         	7.622          	0.1
MS.423         	7.607          	0.095
MS.424         	7.592          	0.094
MS.425         	7.577          	0.061
MS.426         	7.562          	0.065
MS.427         	7.547          	0.099
MS.428         	7.532          	0.063
MS.429         	7.517          	0.065
MS.430         	7.503          	0.063
MS.431         	7.487          	0.021
MS.432         	7.472          	0.02
MS.433         	7.457          	0.022
MS.434         	7.442          	0.017
MS.435         	7.427          	0.021
MS.436         	7.412          	0.065
MS.437         	7.398          	0.02
MS.438         	7.382          	0.018
MS.439         	7.367          	0.022
MS.440         	7.352          	0.018
MS.441         	7.34           	0.065
MS.442         	7.325          	0.017
MS.443         	7.31           	0.022
MS.444         	7.295          	0.018
MS.445         	7.28           	0.021
MS.446         	7.265          	0.022
MS.447         	7.253          	0.02
MS.448         	7.237          	0.02
MS.449         	7.222          	0.023
MS.450         	7.207          	0.02
MS.451         	7.192          	0.016
MS.452         	7.18           	0.017
MS.453         	7.165          	0.016
MS.454         	7.15           	0.022
MS.455         	7.137          	0.024
MS.456         	7.122          	0.016
MS.457         	7.108          	0.016
MS.458         	7.092          	0.02
MS.459         	7.08           	0.02
MS.460         	7.065          	0.017
MS.461         	7.052          	0.018
MS.462         	7.037          	0.024
MS.463         	7.023          	0.018
MS.464         	7.01           	0.021
MS.465         	6.995          	0.032
MS.466         	6.98           	0.023
MS.467         	6.967          	0.018
MS.468         	6.952          	0.022
MS.469         	6.94           	0.017
MS.470         	6.925          	0.015
MS.471         	6.912          	0.023
MS.472         	6.898          	0.022
MS.473         	6.885          	0.024
MS.474         	6.87           	0.022
MS.475         	6.858          	0.02
MS.476         	6.842          	0.021
MS.477         	6.83           	0.022
MS.478         	6.815          	0.023
MS.479         	6.802          	0.02
MS.480         	6.787          	0.018
MS.481         	6.775          	0.02
MS.482         	6.762          	0.021
MS.483         	6.747          	0.02
MS.484         	6.735          	0.023
MS.485         	6.72           	0.021
MS.486         	6.707          	0.02
MS.487         	6.695          	0.02
MS.488         	6.68           	0.017
MS.489         	6.668          	0.02
MS.490         	6.655          	0.02
MS.491         	6.64           	0.021
MS.492         	6.628          	0.018
MS.493         	6.615          	0.018
MS.494         	6.6            	0.023
MS.495         	6.587          	0.021
MS.496         	6.575          	0.026
MS.497         	6.562          	0.022
MS.498         	6.547          	0.022
MS.499         	6.535          	0.02
MS.500         	6.523          	0.017
MS.501         	6.51           	0.022
MS.502         	6.495          	0.021
MS.503         	6.483          	0.021
MS.504         	6.47           	0.02
MS.505         	6.457          	0.023
MS.506         	6.445          	0.016
MS.507         	6.432          	0.018
MS.508         	6.418          	0.021
MS.509         	6.405          	0.021
MS.510         	6.392          	0.021
MS.511         	6.38           	0.021
MS.512         	6.367          	0.02
MS.513         	6.355          	0.021
MS.514         	6.342          	0.017
MS.515         	6.33           	0.021
MS.516         	6.317          	0.021
MS.517         	6.305          	0.018
MS.518         	6.293          	0.02
MS.519         	6.28           	0.022
MS.520         	6.267          	0.016
MS.521         	6.255          	0.022
MS.522         	6.242          	0.022
MS.523         	6.23           	0.021
MS.524         	6.217          	0.021
MS.525         	6.205          	0.022
MS.526         	6.192          	0.021
MS.527         	6.18           	0.017
MS.528         	6.168          	0.023
MS.529         	6.155          	0.021
MS.530         	6.142          	0.022
MS.531         	6.13           	0.023
MS.532         	6.117          	0.021
MS.533         	6.105          	0.018
MS.534         	6.092          	0.021
MS.535         	6.08           	0.017
MS.536         	6.07           	0.022
MS.537         	6.057          	0.024
MS.538         	6.045          	0.02
MS.539         	6.032          	0.018
MS.540         	6.02           	0.021
MS.541         	6.007          	0.022
MS.542         	5.997          	0.02
MS.543         	5.985          	0.018
MS.544         	5.972          	0.018
MS.545         	5.96           	0.02
MS.546         	5.95           	0.02
MS.547         	5.938          	0.018
MS.548         	5.925          	0.018
MS.549         	5.912          	0.022
MS.550         	5.902          	0.021
MS.551         	5.89           	0.009
MS.552         	5.878          	0.018
MS.553         	5.865          	0.018
MS.554         	5.855          	0.021
MS.555         	5.842          	0.02
MS.556         	5.83           	0.022
MS.557         	5.82           	0.013
MS.558         	5.807          	0.021
MS.559         	5.795          	0.015
MS.560         	5.785          	0.024
MS.561         	5.773          	0.009
MS.562         	5.762          	0.009
MS.563         	5.75           	0.007
MS.564         	5.737          	0.006
MS.565         	5.727          	0.018
MS.566         	5.715          	0.017
MS.567         	5.705          	0.017
MS.568         	5.692          	0.006
MS.569         	5.682          	0.007
MS.570         	5.67           	0.007
MS.571         	5.66           	0.006
MS.572         	5.648          	0.005
MS.573         	5.635          	0.009
MS.574         	5.625          	0.005
MS.575         	5.612          	0.017
MS.576         	5.602          	0.009
MS.577         	5.592          	0.006
MS.578         	5.58           	0.004
MS.579         	5.57           	0.005
MS.580         	5.557          	0.006
MS.581         	5.547          	0.009
MS.582         	5.535          	0.01
MS.583         	5.525          	0.005
MS.584         	5.512          	0.009
MS.585         	5.503          	0.005
MS.586         	5.492          	0.01
MS.587         	5.48           	0.006
MS.588         	5.47           	0.007
MS.589         	5.457          	0.005
MS.590         	5.447          	0.007
MS.591         	5.438          	0.006
MS.592         	5.425          	0.006
MS.593         	5.415          	0.009
MS.594         	5.405          	0.004
MS.595         	5.392          	0.006
MS.596         	5.382          	0.005
MS.597         	5.372          	0.011
MS.598         	5.362          	0.005
MS.599         	5.35           	0.007
MS.600         	5.34           	0.005
MS.601         	5.33           	0.005
MS.602         	5.318          	0.004
MS.603         	5.307          	0.006
MS.604         	5.297          	0.006
MS.605         	5.287          	0.006
MS.606         	5.275          	0.006
DERIVED EXCITABILITY VARIABLES
Program = QTracP 3/4/2020
Threshold method = 6 (optimised for CAP, using data for present condition only)
SR method = 1 (using actual data values)
6.                 	0.000               	Peak response\(mV)
9.                 	30.2                	Temperature ( C)
17.                	23                  	Age (years)
18.                	2                   	Sex (M=1, F=2)

EXTRA VARIABLES

MScPeak(mV) = 10.03
MScS5(mA) = 8.5
MScS50(mA) = 10.05
MScS95(mA) = 12.05
MScNSteps = 5
MScSteps(%) = 11.3
MScStepMax(%) = 2.7
MScD50 = 33
MScSlope = 7.14
MSFPeakAmp(mV) = 10.1
MSFNUnits = 165
MSFMeanUnitAmp(uV) = 61
MSFHuntTime(m) = 2.4
MSFError(%) = 4.56
MSFNLarge = 53.45
MSFMedianAmp(%) = 0.532
MSFMedianAmp(mV) = 0.0536
MSFHalfAmpAmp(%) = 0.668
MSFHalfAmpAmp(mV) = 0.0673
MSFLargestAmp(%) = 1.82
MSFLargestAmp(mV) = 0.183
MSFMeanRS(%) = 2
MSFOpts = 10106121
MScDuration(min) = 5.6
MSFTraces = 368
MSFSizeLimit(uV) = 25.2
MSFLimitType = 1
MSFSmallestAmp(uV) = 25.5

EXTRA WAVEFORMS


!MScan Model
!165
	1	7.56	0.42	2
	2	7.73	0.25	2
	3	7.85	0.29	2
	4	7.95	0.37	2
	5	8.02	0.43	2
	6	8.08	0.27	2
	7	8.13	0.35	2
	8	8.19	0.33	2
	9	8.24	0.33	2
	10	8.3	0.31	2
	11	8.35	0.35	2
	12	8.41	0.44	2
	13	8.47	0.46	2
	14	8.52	0.45	2
	15	8.57	0.5	2
	16	8.64	0.59	2
	17	8.66	0.35	2
	18	8.69	0.32	2
	19	8.71	0.47	2
	20	8.73	0.42	2
	21	8.75	0.33	2
	22	8.76	0.31	2
	23	8.77	0.35	2
	24	8.82	0.56	2
	25	8.84	0.7	2
	26	8.87	0.8	2
	27	8.9	0.88	2
	28	8.93	0.85	2
	29	8.95	0.9	2
	30	8.97	0.72	2
	31	8.99	0.87	2
	32	9.02	0.95	2
	33	9.04	0.92	2
	34	9.06	1	2
	35	9.08	0.88	2
	36	9.11	1.1	2
	37	9.13	0.61	2
	38	9.15	0.82	2
	39	9.15	0.56	2
	40	9.16	0.67	2
	41	9.18	0.61	2
	42	9.19	0.6	2
	43	9.21	0.6	2
	44	9.23	0.7	2
	45	9.25	0.87	2
	46	9.27	1	2
	47	9.29	0.78	2
	48	9.31	0.61	2
	49	9.32	0.31	2
	50	9.33	0.31	2
	51	9.34	0.31	2
	52	9.35	0.37	2
	53	9.36	0.41	2
	54	9.37	0.42	2
	55	9.38	0.42	2
	56	9.4	0.41	2
	57	9.41	0.4	2
	58	9.41	0.28	2
	59	9.42	0.28	2
	60	9.43	0.27	2
	61	9.43	0.27	2
	62	9.44	0.27	2
	63	9.46	0.48	2
	64	9.47	0.48	2
	65	9.48	0.5	2
	66	9.49	0.26	2
	67	9.5	0.26	2
	68	9.51	0.59	2
	69	9.53	0.57	2
	70	9.54	0.42	2
	71	9.56	0.49	2
	72	9.58	0.61	2
	73	9.6	0.53	2
	74	9.61	0.45	2
	75	9.62	0.47	2
	76	9.64	0.49	2
	77	9.65	0.52	2
	78	9.66	0.41	2
	79	9.68	0.37	2
	80	9.69	0.35	2
	81	9.7	0.29	2
	82	9.71	0.29	2
	83	9.72	0.29	2
	84	9.74	0.3	2
	85	9.75	0.31	2
	86	9.76	0.32	2
	87	9.77	0.32	2
	88	9.78	0.45	2
	89	9.8	0.47	2
	90	9.82	0.56	2
	91	9.83	0.61	2
	92	9.85	0.6	2
	93	9.87	0.59	2
	94	9.93	1.48	2
	95	9.98	1.31	2
	96	10.03	1.82	2
	97	10.08	1.43	2
	98	10.13	1.78	2
	99	10.18	1.42	2
	100	10.21	0.8	2
	101	10.25	0.84	2
	102	10.28	1.08	1.6
	103	10.31	1.6	2
	104	10.34	1.58	2
	105	10.37	1.21	2
	106	10.39	0.7	2
	107	10.41	0.64	2
	108	10.43	0.45	2
	109	10.44	0.52	2
	110	10.46	0.95	2
	111	10.48	0.67	2
	112	10.5	0.86	2
	113	10.51	0.86	2
	114	10.53	0.77	2
	115	10.55	0.72	2
	116	10.57	0.73	2
	117	10.59	0.73	2
	118	10.6	0.71	2
	119	10.62	0.75	2
	120	10.64	0.78	2
	121	10.66	0.68	2
	122	10.67	0.53	2
	123	10.69	0.52	2
	124	10.71	0.71	2
	125	10.74	0.67	2
	126	10.76	0.56	2
	127	10.79	0.58	2
	128	10.81	0.63	2
	129	10.84	0.7	2
	130	10.86	0.82	2
	131	10.89	0.67	2
	132	10.92	0.57	2
	133	10.94	0.49	2
	134	10.96	0.45	2
	135	10.98	0.46	2
	136	11	0.53	2
	137	11.02	0.52	2
	138	11.04	0.49	2
	139	11.06	0.48	2
	140	11.08	0.44	2
	141	11.1	0.42	2
	142	11.12	0.43	2
	143	11.15	0.67	2
	144	11.19	0.72	2
	145	11.22	0.61	2
	146	11.28	0.98	2
	147	11.34	1.06	2
	148	11.4	0.65	2
	149	11.45	0.52	2
	150	11.52	0.66	2
	151	11.59	0.59	2
	152	11.67	0.6	2
	153	11.87	0.92	2
	154	11.98	0.48	2
	155	12.06	0.36	2
	156	12.12	0.29	2
	157	12.19	0.4	2
	158	12.28	0.65	2
	159	12.35	0.37	2
	160	12.42	0.33	2
	161	12.51	0.55	2
	162	12.65	0.74	2
	163	12.83	0.73	2
	164	12.95	0.47	2
	165	13.09	0.51	2

