File:              	C:\Qtrac\Data\Daniel M Sørensen\MScan multicentre study\Data from centres\Edmonton\MSCC00218G.QZD
Name:              	CA.EDM.NC.4.2
Protocol:          	MSCAN-R2
Date:              	18/2/20
Start time:        	13:54:23
Age:               	59
Sex:               	F
Temperature:       	30.9
S/R sites:         	CP Kn-TA
NC/disease:        	NC
Operator:          	KJ
Comments:
M-SCAN DATA (5.8-1.4m)
Scanpts: 23, 26, 460, 481
Stim. (mA)     	Amp. (mV)
MS.1           	26.5           	5.106
MS.2           	26.5           	5.112
MS.3           	26.5           	5.116
MS.4           	26.5           	5.054
MS.5           	26.5           	5.039
MS.6           	26.5           	5.031
MS.7           	26.5           	5.108
MS.8           	26.5           	5.1
MS.9           	26.5           	5.074
MS.10          	26.5           	5.023
MS.11          	26.5           	5.062
MS.12          	26.5           	5.027
MS.13          	26.5           	5.058
MS.14          	26.5           	5.08
MS.15          	26.5           	5.086
MS.16          	26.5           	5.041
MS.17          	26.5           	5.104
MS.18          	26.5           	5.104
MS.19          	26.5           	5.076
MS.20          	26.5           	5.106
MS.21          	26.5           	5.104
MS.22          	26.5           	5.106
MS.23          	26.5           	5.08
MS.24          	26.395         	5.076
MS.25          	26.342         	5.078
MS.26          	26.287         	5.082
MS.27          	26.235         	5.082
MS.28          	26.185         	5.076
MS.29          	26.132         	5.045
MS.30          	26.08          	5.027
MS.31          	26.028         	5.088
MS.32          	25.975         	5.025
MS.33          	25.922         	5.102
MS.34          	25.872         	5.086
MS.35          	25.82          	5.074
MS.36          	25.767         	5.072
MS.37          	25.717         	5.086
MS.38          	25.665         	5.041
MS.39          	25.615         	5.029
MS.40          	25.562         	5.013
MS.41          	25.512         	5.039
MS.42          	25.46          	5.027
MS.43          	25.41          	5.027
MS.44          	25.36          	5.045
MS.45          	25.307         	5.041
MS.46          	25.257         	5.039
MS.47          	25.207         	5.015
MS.48          	25.157         	5.013
MS.49          	25.108         	5.025
MS.50          	25.057         	5.07
MS.51          	25.007         	5.041
MS.52          	24.957         	5.066
MS.53          	24.907         	5.023
MS.54          	24.858         	5.033
MS.55          	24.807         	5.043
MS.56          	24.757         	5.021
MS.57          	24.707         	5.015
MS.58          	24.66          	5.033
MS.59          	24.61          	5.007
MS.60          	24.56          	4.975
MS.61          	24.512         	5.015
MS.62          	24.462         	4.969
MS.63          	24.413         	4.945
MS.64          	24.365         	5.001
MS.65          	24.315         	4.977
MS.66          	24.267         	4.975
MS.67          	24.22          	4.979
MS.68          	24.17          	4.983
MS.69          	24.122         	4.999
MS.70          	24.075         	4.927
MS.71          	24.025         	4.947
MS.72          	23.977         	4.917
MS.73          	23.93          	4.943
MS.74          	23.882         	4.939
MS.75          	23.835         	4.929
MS.76          	23.788         	4.917
MS.77          	23.74          	4.913
MS.78          	23.692         	4.919
MS.79          	23.645         	4.941
MS.80          	23.597         	4.906
MS.81          	23.55          	4.911
MS.82          	23.502         	4.882
MS.83          	23.457         	4.896
MS.84          	23.41          	4.886
MS.85          	23.362         	4.915
MS.86          	23.315         	4.913
MS.87          	23.27          	4.878
MS.88          	23.222         	4.864
MS.89          	23.177         	4.864
MS.90          	23.13          	4.856
MS.91          	23.085         	4.846
MS.92          	23.038         	4.828
MS.93          	22.993         	4.826
MS.94          	22.945         	4.806
MS.95          	22.9           	4.854
MS.96          	22.855         	4.832
MS.97          	22.807         	4.77
MS.98          	22.762         	4.774
MS.99          	22.717         	4.77
MS.100         	22.672         	4.838
MS.101         	22.627         	4.842
MS.102         	22.582         	4.768
MS.103         	22.538         	4.822
MS.104         	22.493         	4.725
MS.105         	22.448         	4.755
MS.106         	22.403         	4.719
MS.107         	22.358         	4.687
MS.108         	22.312         	4.743
MS.109         	22.267         	4.699
MS.110         	22.222         	4.687
MS.111         	22.18          	4.651
MS.112         	22.135         	4.677
MS.113         	22.09          	4.655
MS.114         	22.045         	4.675
MS.115         	22.002         	4.649
MS.116         	21.958         	4.612
MS.117         	21.915         	4.683
MS.118         	21.87          	4.61
MS.119         	21.827         	4.6
MS.120         	21.782         	4.62
MS.121         	21.74          	4.606
MS.122         	21.698         	4.594
MS.123         	21.653         	4.55
MS.124         	21.61          	4.59
MS.125         	21.567         	4.534
MS.126         	21.522         	4.518
MS.127         	21.48          	4.492
MS.128         	21.438         	4.486
MS.129         	21.395         	4.469
MS.130         	21.352         	4.463
MS.131         	21.31          	4.419
MS.132         	21.267         	4.451
MS.133         	21.225         	4.443
MS.134         	21.182         	4.425
MS.135         	21.14          	4.405
MS.136         	21.097         	4.433
MS.137         	21.055         	4.365
MS.138         	21.012         	4.395
MS.139         	20.97          	4.405
MS.140         	20.93          	4.371
MS.141         	20.887         	4.405
MS.142         	20.845         	4.353
MS.143         	20.805         	4.369
MS.144         	20.762         	4.324
MS.145         	20.72          	4.375
MS.146         	20.68          	4.357
MS.147         	20.637         	4.343
MS.148         	20.597         	4.316
MS.149         	20.555         	4.407
MS.150         	20.515         	4.423
MS.151         	20.472         	4.284
MS.152         	20.432         	4.341
MS.153         	20.392         	4.318
MS.154         	20.35          	4.322
MS.155         	20.31          	4.181
MS.156         	20.27          	4.208
MS.157         	20.23          	4.191
MS.158         	20.19          	4.161
MS.159         	20.147         	4.165
MS.160         	20.108         	4.121
MS.161         	20.067         	4.105
MS.162         	20.028         	3.986
MS.163         	19.987         	3.958
MS.164         	19.948         	3.994
MS.165         	19.907         	4.01
MS.166         	19.868         	3.924
MS.167         	19.83          	3.928
MS.168         	19.79          	3.837
MS.169         	19.75          	3.877
MS.170         	19.71          	3.841
MS.171         	19.67          	3.889
MS.172         	19.632         	3.815
MS.173         	19.592         	3.722
MS.174         	19.552         	3.704
MS.175         	19.515         	3.625
MS.176         	19.475         	3.605
MS.177         	19.438         	3.674
MS.178         	19.397         	3.702
MS.179         	19.358         	3.605
MS.180         	19.32          	3.557
MS.181         	19.282         	3.581
MS.182         	19.243         	3.561
MS.183         	19.205         	3.472
MS.184         	19.165         	3.505
MS.185         	19.127         	3.521
MS.186         	19.09          	3.47
MS.187         	19.052         	3.478
MS.188         	19.012         	3.414
MS.189         	18.975         	3.402
MS.190         	18.938         	3.44
MS.191         	18.9           	3.484
MS.192         	18.862         	3.394
MS.193         	18.825         	3.358
MS.194         	18.788         	3.329
MS.195         	18.75          	3.35
MS.196         	18.712         	3.348
MS.197         	18.675         	3.297
MS.198         	18.637         	3.265
MS.199         	18.6           	3.267
MS.200         	18.562         	3.255
MS.201         	18.525         	3.225
MS.202         	18.487         	3.223
MS.203         	18.452         	3.176
MS.204         	18.415         	3.09
MS.205         	18.378         	3.102
MS.206         	18.34          	3.148
MS.207         	18.305         	3.124
MS.208         	18.267         	3.104
MS.209         	18.233         	3.053
MS.210         	18.195         	3.035
MS.211         	18.157         	3.078
MS.212         	18.122         	3.031
MS.213         	18.085         	2.951
MS.214         	18.05          	2.959
MS.215         	18.015         	2.993
MS.216         	17.977         	2.931
MS.217         	17.942         	2.955
MS.218         	17.905         	2.88
MS.219         	17.87          	2.81
MS.220         	17.835         	2.757
MS.221         	17.8           	2.725
MS.222         	17.762         	2.808
MS.223         	17.727         	2.743
MS.224         	17.692         	2.657
MS.225         	17.657         	2.697
MS.226         	17.622         	2.786
MS.227         	17.587         	2.703
MS.228         	17.552         	2.808
MS.229         	17.517         	2.554
MS.230         	17.483         	2.508
MS.231         	17.448         	2.5
MS.232         	17.413         	2.504
MS.233         	17.378         	2.492
MS.234         	17.342         	2.449
MS.235         	17.307         	2.461
MS.236         	17.272         	2.508
MS.237         	17.237         	2.353
MS.238         	17.205         	2.389
MS.239         	17.17          	2.359
MS.240         	17.135         	2.359
MS.241         	17.1           	2.302
MS.242         	17.067         	2.268
MS.243         	17.032         	2.262
MS.244         	17             	2.195
MS.245         	16.965         	2.296
MS.246         	16.93          	2.226
MS.247         	16.897         	2.145
MS.248         	16.862         	2.046
MS.249         	16.83          	2.067
MS.250         	16.795         	2.018
MS.251         	16.762         	1.905
MS.252         	16.73          	2.016
MS.253         	16.695         	1.911
MS.254         	16.663         	2.089
MS.255         	16.63          	2.077
MS.256         	16.595         	1.825
MS.257         	16.562         	1.698
MS.258         	16.53          	1.964
MS.259         	16.497         	1.915
MS.260         	16.462         	1.7
MS.261         	16.43          	1.658
MS.262         	16.397         	1.744
MS.263         	16.365         	1.752
MS.264         	16.333         	1.569
MS.265         	16.3           	1.533
MS.266         	16.267         	1.621
MS.267         	16.235         	1.497
MS.268         	16.202         	1.617
MS.269         	16.17          	1.515
MS.270         	16.137         	1.587
MS.271         	16.105         	1.575
MS.272         	16.073         	1.535
MS.273         	16.04          	1.418
MS.274         	16.01          	1.474
MS.275         	15.977         	1.384
MS.276         	15.945         	1.267
MS.277         	15.912         	1.366
MS.278         	15.882         	1.408
MS.279         	15.85          	1.339
MS.280         	15.818         	1.347
MS.281         	15.787         	1.241
MS.282         	15.755         	1.269
MS.283         	15.722         	1.261
MS.284         	15.693         	1.182
MS.285         	15.66          	1.2
MS.286         	15.63          	1.18
MS.287         	15.597         	1.156
MS.288         	15.568         	1.11
MS.289         	15.535         	1.13
MS.290         	15.505         	1.116
MS.291         	15.472         	1.148
MS.292         	15.443         	1.039
MS.293         	15.412         	1.074
MS.294         	15.38          	1.078
MS.295         	15.35          	1.061
MS.296         	15.32          	1.051
MS.297         	15.29          	0.943
MS.298         	15.257         	1.011
MS.299         	15.227         	1.059
MS.300         	15.197         	0.912
MS.301         	15.167         	0.993
MS.302         	15.137         	0.989
MS.303         	15.108         	1.017
MS.304         	15.077         	0.951
MS.305         	15.047         	0.969
MS.306         	15.017         	0.977
MS.307         	14.987         	0.916
MS.308         	14.957         	0.87
MS.309         	14.927         	0.888
MS.310         	14.898         	0.904
MS.311         	14.867         	0.824
MS.312         	14.837         	0.8
MS.313         	14.807         	0.858
MS.314         	14.777         	0.733
MS.315         	14.747         	0.719
MS.316         	14.72          	0.747
MS.317         	14.69          	0.846
MS.318         	14.66          	0.669
MS.319         	14.63          	0.699
MS.320         	14.602         	0.741
MS.321         	14.572         	0.655
MS.322         	14.542         	0.685
MS.323         	14.515         	0.665
MS.324         	14.485         	0.641
MS.325         	14.457         	0.689
MS.326         	14.427         	0.564
MS.327         	14.398         	0.624
MS.328         	14.37          	0.594
MS.329         	14.342         	0.544
MS.330         	14.312         	0.667
MS.331         	14.285         	0.618
MS.332         	14.255         	0.502
MS.333         	14.227         	0.421
MS.334         	14.197         	0.485
MS.335         	14.17          	0.512
MS.336         	14.142         	0.411
MS.337         	14.112         	0.411
MS.338         	14.085         	0.514
MS.339         	14.057         	0.457
MS.340         	14.03          	0.395
MS.341         	14             	0.471
MS.342         	13.972         	0.413
MS.343         	13.945         	0.381
MS.344         	13.917         	0.419
MS.345         	13.89          	0.383
MS.346         	13.862         	0.377
MS.347         	13.835         	0.371
MS.348         	13.807         	0.363
MS.349         	13.78          	0.346
MS.350         	13.752         	0.34
MS.351         	13.725         	0.391
MS.352         	13.697         	0.29
MS.353         	13.67          	0.316
MS.354         	13.642         	0.348
MS.355         	13.615         	0.328
MS.356         	13.587         	0.326
MS.357         	13.56          	0.304
MS.358         	13.532         	0.31
MS.359         	13.505         	0.26
MS.360         	13.48          	0.278
MS.361         	13.452         	0.276
MS.362         	13.425         	0.238
MS.363         	13.398         	0.147
MS.364         	13.372         	0.216
MS.365         	13.345         	0.183
MS.366         	13.318         	0.151
MS.367         	13.292         	0.246
MS.368         	13.265         	0.189
MS.369         	13.237         	0.123
MS.370         	13.212         	0.224
MS.371         	13.185         	0.171
MS.372         	13.16          	0.109
MS.373         	13.132         	0.097
MS.374         	13.108         	0.117
MS.375         	13.08          	0.167
MS.376         	13.055         	0.105
MS.377         	13.028         	0.101
MS.378         	13.002         	0.095
MS.379         	12.977         	0.121
MS.380         	12.95          	0.125
MS.381         	12.925         	0.091
MS.382         	12.9           	0.079
MS.383         	12.872         	0.087
MS.384         	12.847         	0.079
MS.385         	12.822         	0.089
MS.386         	12.795         	0.083
MS.387         	12.77          	0.079
MS.388         	12.745         	0.099
MS.389         	12.72          	0.099
MS.390         	12.695         	0.087
MS.391         	12.67          	0.099
MS.392         	12.642         	0.091
MS.393         	12.617         	0.087
MS.394         	12.592         	0.089
MS.395         	12.568         	0.087
MS.396         	12.542         	0.081
MS.397         	12.517         	0.087
MS.398         	12.492         	0.091
MS.399         	12.467         	0.091
MS.400         	12.443         	0.095
MS.401         	12.417         	0.093
MS.402         	12.392         	0.091
MS.403         	12.367         	0.091
MS.404         	12.342         	0.079
MS.405         	12.32          	0.087
MS.406         	12.295         	0.095
MS.407         	12.27          	0.093
MS.408         	12.245         	0.022
MS.409         	12.22          	0.024
MS.410         	12.197         	0.097
MS.411         	12.172         	0.093
MS.412         	12.148         	0.024
MS.413         	12.122         	0.095
MS.414         	12.1           	0.093
MS.415         	12.075         	0.093
MS.416         	12.05          	0.097
MS.417         	12.028         	0.024
MS.418         	12.002         	0.024
MS.419         	11.98          	0.024
MS.420         	11.955         	0.022
MS.421         	11.93          	0.018
MS.422         	11.907         	0.093
MS.423         	11.882         	0.089
MS.424         	11.86          	0.093
MS.425         	11.835         	0.022
MS.426         	11.812         	0.095
MS.427         	11.787         	0.091
MS.428         	11.765         	0.024
MS.429         	11.742         	0.02
MS.430         	11.717         	0.087
MS.431         	11.695         	0.016
MS.432         	11.672         	0.091
MS.433         	11.648         	0.022
MS.434         	11.625         	0.091
MS.435         	11.602         	0.022
MS.436         	11.577         	0.024
MS.437         	11.555         	0.018
MS.438         	11.532         	0.022
MS.439         	11.51          	0.026
MS.440         	11.485         	0.016
MS.441         	11.462         	0.02
MS.442         	11.44          	0.085
MS.443         	11.417         	0.022
MS.444         	11.395         	0.085
MS.445         	11.372         	0.016
MS.446         	11.35          	0.016
MS.447         	11.327         	0.016
MS.448         	11.305         	0.024
MS.449         	11.28          	0.016
MS.450         	11.257         	0.014
MS.451         	11.235         	0.018
MS.452         	11.215         	0.014
MS.453         	11.193         	0.018
MS.454         	11.17          	0.016
MS.455         	11.148         	0.018
MS.456         	11.125         	0.014
MS.457         	11.102         	0.014
MS.458         	11.08          	0.016
MS.459         	11.057         	0.016
MS.460         	11.035         	0.018
MS.461         	11.012         	0.016
MS.462         	10.992         	0.018
MS.463         	10.97          	0.016
MS.464         	10.948         	0.016
MS.465         	10.925         	0.014
MS.466         	10.905         	0.016
MS.467         	10.882         	0.016
MS.468         	10.86          	0.016
MS.469         	10.84          	0.018
MS.470         	10.818         	0.018
MS.471         	10.795         	0.016
MS.472         	10.775         	0.014
MS.473         	10.752         	0.016
MS.474         	10.73          	0.016
MS.475         	10.71          	0.018
MS.476         	10.688         	0.016
MS.477         	10.667         	0.016
MS.478         	10.645         	0.012
MS.479         	10.625         	0.018
MS.480         	10.602         	0.016
MS.481         	10.582         	0.016
DERIVED EXCITABILITY VARIABLES
Program = QTracP 3/4/2020
Threshold method = 6 (optimised for CAP, using data for present condition only)
SR method = 1 (using actual data values)
6.                 	0.000               	Peak response\(mV)
9.                 	30.9                	Temperature ( C)
17.                	59                  	Age (years)
18.                	2                   	Sex (M=1, F=2)

EXTRA VARIABLES

MScPeak(mV) = 5.06
MScS5(mA) = 13.44
MScS50(mA) = 17.5
MScS95(mA) = 22.73
MScNSteps = 1
MScSteps(%) = 2
MScStepMax(%) = 2
MScD50 = 58
MScSlope = 4.53
MSFPeakAmp(mV) = 5.06
MSFNUnits = 167
MSFMeanUnitAmp(uV) = 30.3
MSFHuntTime(m) = 2.38
MSFError(%) = 1.88
MSFNLarge = 44.57
MSFMedianAmp(%) = 0.452
MSFMedianAmp(mV) = 0.0229
MSFHalfAmpAmp(%) = 0.661
MSFHalfAmpAmp(mV) = 0.0335
MSFLargestAmp(%) = 2.93
MSFLargestAmp(mV) = 0.148
MSFMeanRS(%) = 2
MSFOpts = 10106121
MScDuration(min) = 4.4
MSFTraces = 459
MSFSizeLimit(uV) = 12.7
MSFLimitType = 1
MSFSmallestAmp(uV) = 12.7

EXTRA WAVEFORMS


!MScan Model
!167
	1	12.08	1.33	2
	2	13.02	0.4	2
	3	13.23	1.04	2
	4	13.36	0.88	2
	5	13.42	0.27	2
	6	13.45	0.35	2
	7	13.5	0.61	1.6
	8	13.62	0.92	2
	9	13.72	0.58	2
	10	13.82	0.48	2
	11	13.92	0.62	2
	12	14.1	1.07	2
	13	14.22	1.22	2
	14	14.32	0.86	2
	15	14.52	2.06	2
	16	14.64	0.89	2
	17	14.71	0.81	2
	18	14.76	0.59	2
	19	14.78	0.3	2
	20	14.84	0.38	2
	21	14.86	0.36	2
	22	14.89	0.37	2
	23	14.95	0.87	2
	24	15.03	0.81	2
	25	15.22	1.39	2
	26	15.31	0.42	2
	27	15.37	0.58	2
	28	15.42	0.42	2
	29	15.46	0.43	2
	30	15.51	0.43	2
	31	15.57	0.43	2
	32	15.59	0.37	2
	33	15.61	0.29	2
	34	15.63	0.25	2
	35	15.65	0.25	2
	36	15.7	0.55	2
	37	15.76	0.62	2
	38	15.81	0.71	2
	39	15.87	0.8	2
	40	15.94	1.02	2
	41	16.04	1.53	2
	42	16.19	1.38	2
	43	16.31	2.12	2
	44	16.38	0.99	2
	45	16.46	1.61	2
	46	16.62	2.52	2
	47	16.76	2.93	2
	48	16.84	1.12	2
	49	16.87	0.33	2
	50	16.89	0.33	2
	51	16.91	0.31	2
	52	16.94	0.34	2
	53	16.96	0.41	2
	54	16.99	0.41	2
	55	17.01	0.51	2
	56	17.05	0.66	2
	57	17.09	0.67	2
	58	17.13	0.54	2
	59	17.17	0.49	2
	60	17.23	0.88	2
	61	17.31	0.99	2
	62	17.37	0.99	2
	63	17.44	0.83	2
	64	17.5	0.99	2
	65	17.64	2.06	2
	66	17.71	0.72	2
	67	17.74	0.28	2
	68	17.76	0.28	2
	69	17.79	0.26	2
	70	17.82	0.35	2
	71	17.84	0.4	2
	72	17.87	0.4	2
	73	17.89	0.36	2
	74	17.92	0.36	2
	75	17.94	0.36	2
	76	17.96	0.33	2
	77	17.99	0.32	2
	78	18.01	0.32	2
	79	18.04	0.32	2
	80	18.07	0.48	2
	81	18.13	0.74	2
	82	18.18	0.56	2
	83	18.24	0.56	2
	84	18.31	0.56	2
	85	18.34	0.32	2
	86	18.36	0.27	2
	87	18.39	0.27	2
	88	18.41	0.27	2
	89	18.45	0.42	2
	90	18.49	0.52	2
	91	18.57	0.57	2
	92	18.61	0.5	2
	93	18.65	0.45	2
	94	18.69	0.47	2
	95	18.73	0.45	2
	96	18.77	0.34	2
	97	18.82	0.48	2
	98	18.9	0.7	2
	99	18.98	0.55	2
	100	19.01	0.26	2
	101	19.05	0.26	2
	102	19.09	0.33	2
	103	19.12	0.38	2
	104	19.16	0.38	2
	105	19.24	0.76	2
	106	19.31	0.59	2
	107	19.38	0.59	2
	108	19.43	0.43	2
	109	19.47	0.77	2
	110	19.52	0.64	2
	111	19.56	0.57	2
	112	19.6	0.45	2
	113	19.63	0.45	2
	114	19.66	0.37	2
	115	19.7	0.45	2
	116	19.73	0.46	2
	117	19.76	0.38	2
	118	19.78	0.27	2
	119	19.8	0.27	2
	120	19.82	0.27	2
	121	19.84	0.27	2
	122	19.86	0.26	2
	123	19.88	0.27	2
	124	19.9	0.28	2
	125	19.92	0.28	2
	126	19.94	0.28	2
	127	19.96	0.31	2
	128	19.98	1.49	2
	129	19.98	0.35	2
	130	20.01	0.35	2
	131	20.03	0.34	2
	132	20.06	0.32	2
	133	20.08	0.34	2
	134	20.11	0.35	2
	135	20.13	0.35	2
	136	20.18	0.57	2
	137	20.23	0.77	2
	138	20.28	0.73	2
	139	20.34	1.06	2
	140	20.95	0.75	2
	141	21.15	0.54	2
	142	21.24	0.34	2
	143	21.33	0.47	2
	144	21.38	0.28	2
	145	21.44	0.47	2
	146	21.54	0.56	2
	147	21.64	0.6	2
	148	21.72	0.54	2
	149	21.8	0.44	2
	150	21.88	0.38	2
	151	21.97	0.37	2
	152	22.06	0.35	2
	153	22.14	0.3	2
	154	22.22	0.31	2
	155	22.33	0.52	2
	156	22.47	0.65	2
	157	22.82	1.15	2
	158	23.05	0.61	2
	159	23.21	0.56	2
	160	23.33	0.34	2
	161	23.48	0.32	2
	162	23.67	0.29	2
	163	23.89	0.42	2
	164	24.31	0.81	2
	165	24.52	0.3	2
	166	24.84	0.65	2
	167	26.13	0.87	2

