File:              	C:\Qtrac\Data\Daniel M Sørensen\MScan multicentre study\Data from centres\Edmonton\Processed data\MSCC00930B.QZD
Name:              	CA.EDM.NC.9.1
Protocol:          	MSCAN-R2
Date:              	30/9/20
Start time:        	11:41:12
Age:               	23
Sex:               	F
Temperature:       	34.8
S/R sites:         	ADM
NC/disease:        	NC
Operator:          	KJ
Comments:
M-SCAN DATA (7.8-2.9m)
Scanpts: 26, 32, 420, 434
Stim. (mA)     	Amp. (mV)
MS.1           	23             	12.661
MS.2           	23             	12.643
MS.3           	23             	12.699
MS.4           	23             	12.663
MS.5           	23             	12.74
MS.6           	23             	12.746
MS.7           	23             	12.814
MS.8           	23             	12.812
MS.9           	23             	12.824
MS.10          	23             	12.84
MS.11          	23             	12.866
MS.12          	23             	12.844
MS.13          	23             	12.838
MS.14          	23             	12.901
MS.15          	23             	12.939
MS.16          	23             	12.872
MS.17          	23             	12.87
MS.18          	23             	12.935
MS.19          	23             	12.895
MS.20          	23             	13.013
MS.21          	23             	12.975
MS.22          	23             	12.959
MS.23          	22.907         	12.977
MS.24          	22.862         	13.007
MS.25          	22.817         	13.05
MS.26          	22.77          	13.06
MS.27          	22.725         	13.054
MS.28          	22.68          	13.034
MS.29          	22.635         	13.028
MS.30          	22.59          	13.066
MS.31          	22.545         	12.981
MS.32          	22.5           	13.062
MS.33          	22.455         	13.1
MS.34          	22.41          	12.987
MS.35          	22.365         	12.969
MS.36          	22.32          	13.046
MS.37          	22.275         	12.971
MS.38          	22.23          	13.042
MS.39          	22.188         	12.814
MS.40          	22.142         	12.832
MS.41          	22.097         	13.038
MS.42          	22.055         	12.927
MS.43          	22.01          	12.931
MS.44          	21.965         	12.864
MS.45          	21.922         	13.124
MS.46          	21.877         	12.955
MS.47          	21.835         	12.812
MS.48          	21.79          	12.782
MS.49          	21.747         	12.963
MS.50          	21.705         	12.85
MS.51          	21.66          	12.945
MS.52          	21.618         	12.973
MS.53          	21.575         	12.778
MS.54          	21.53          	12.848
MS.55          	21.487         	12.969
MS.56          	21.445         	13.026
MS.57          	21.403         	12.591
MS.58          	21.36          	12.727
MS.59          	21.317         	12.77
MS.60          	21.275         	12.649
MS.61          	21.233         	12.665
MS.62          	21.19          	12.705
MS.63          	21.147         	12.544
MS.64          	21.105         	12.746
MS.65          	21.062         	12.725
MS.66          	21.02          	12.588
MS.67          	20.977         	12.802
MS.68          	20.938         	12.617
MS.69          	20.895         	12.534
MS.70          	20.852         	12.625
MS.71          	20.81          	12.5
MS.72          	20.77          	12.607
MS.73          	20.727         	12.578
MS.74          	20.688         	12.5
MS.75          	20.645         	12.476
MS.76          	20.605         	12.468
MS.77          	20.562         	12.55
MS.78          	20.522         	12.528
MS.79          	20.48          	12.369
MS.80          	20.44          	12.548
MS.81          	20.4           	12.417
MS.82          	20.358         	12.665
MS.83          	20.317         	12.355
MS.84          	20.278         	12.25
MS.85          	20.237         	12.399
MS.86          	20.195         	12.288
MS.87          	20.155         	12.337
MS.88          	20.115         	12.274
MS.89          	20.075         	12.051
MS.90          	20.035         	12.24
MS.91          	19.995         	11.976
MS.92          	19.955         	12.037
MS.93          	19.915         	12.087
MS.94          	19.875         	12
MS.95          	19.835         	11.936
MS.96          	19.795         	11.837
MS.97          	19.757         	11.678
MS.98          	19.717         	11.829
MS.99          	19.677         	11.882
MS.100         	19.637         	11.654
MS.101         	19.6           	11.561
MS.102         	19.56          	11.459
MS.103         	19.52          	11.501
MS.104         	19.483         	11.4
MS.105         	19.442         	11.297
MS.106         	19.405         	11.32
MS.107         	19.365         	11.148
MS.108         	19.327         	10.985
MS.109         	19.288         	11.207
MS.110         	19.25          	10.806
MS.111         	19.21          	11.082
MS.112         	19.172         	10.836
MS.113         	19.135         	10.985
MS.114         	19.095         	10.893
MS.115         	19.057         	10.689
MS.116         	19.02          	10.691
MS.117         	18.983         	10.566
MS.118         	18.945         	10.524
MS.119         	18.905         	10.613
MS.120         	18.868         	10.584
MS.121         	18.83          	10.47
MS.122         	18.792         	10.564
MS.123         	18.755         	10.47
MS.124         	18.717         	10.506
MS.125         	18.68          	10.603
MS.126         	18.642         	10.49
MS.127         	18.605         	10.633
MS.128         	18.57          	10.429
MS.129         	18.532         	10.268
MS.130         	18.495         	10.431
MS.131         	18.458         	10.302
MS.132         	18.42          	9.984
MS.133         	18.385         	10.435
MS.134         	18.347         	9.91
MS.135         	18.31          	10.043
MS.136         	18.275         	9.813
MS.137         	18.237         	9.801
MS.138         	18.202         	9.791
MS.139         	18.165         	9.686
MS.140         	18.128         	9.803
MS.141         	18.092         	9.517
MS.142         	18.055         	9.509
MS.143         	18.02          	9.648
MS.144         	17.985         	9.537
MS.145         	17.948         	9.442
MS.146         	17.913         	9.547
MS.147         	17.878         	9.424
MS.148         	17.84          	9.267
MS.149         	17.805         	9.368
MS.150         	17.77          	9.255
MS.151         	17.735         	9.487
MS.152         	17.698         	9.332
MS.153         	17.663         	9.233
MS.154         	17.628         	8.971
MS.155         	17.592         	8.828
MS.156         	17.557         	8.758
MS.157         	17.522         	8.953
MS.158         	17.487         	8.882
MS.159         	17.452         	8.874
MS.160         	17.417         	8.921
MS.161         	17.382         	8.872
MS.162         	17.347         	8.941
MS.163         	17.312         	8.667
MS.164         	17.28          	8.607
MS.165         	17.245         	8.564
MS.166         	17.21          	8.735
MS.167         	17.175         	8.363
MS.168         	17.142         	8.306
MS.169         	17.108         	8.586
MS.170         	17.073         	8.3
MS.171         	17.04          	7.98
MS.172         	17.005         	7.803
MS.173         	16.97          	8.133
MS.174         	16.938         	7.851
MS.175         	16.903         	7.753
MS.176         	16.87          	7.875
MS.177         	16.835         	7.535
MS.178         	16.802         	7.753
MS.179         	16.767         	7.551
MS.180         	16.735         	7.557
MS.181         	16.702         	7.511
MS.182         	16.667         	7.362
MS.183         	16.635         	7.479
MS.184         	16.602         	7.205
MS.185         	16.567         	6.947
MS.186         	16.535         	7.124
MS.187         	16.503         	7.082
MS.188         	16.47          	7.299
MS.189         	16.438         	7.185
MS.190         	16.403         	6.931
MS.191         	16.37          	7.017
MS.192         	16.337         	6.157
MS.193         	16.305         	6.433
MS.194         	16.272         	6.641
MS.195         	16.24          	6.298
MS.196         	16.208         	6.482
MS.197         	16.175         	6.149
MS.198         	16.142         	6.417
MS.199         	16.11          	6.28
MS.200         	16.077         	6.326
MS.201         	16.047         	5.676
MS.202         	16.015         	5.855
MS.203         	15.983         	5.76
MS.204         	15.95          	5.295
MS.205         	15.917         	5.374
MS.206         	15.887         	5.464
MS.207         	15.855         	5.301
MS.208         	15.822         	5.195
MS.209         	15.792         	5.374
MS.210         	15.76          	5.213
MS.211         	15.73          	4.965
MS.212         	15.697         	4.951
MS.213         	15.665         	4.88
MS.214         	15.635         	4.802
MS.215         	15.602         	4.637
MS.216         	15.572         	4.558
MS.217         	15.54          	4.395
MS.218         	15.51          	4.31
MS.219         	15.48          	4.318
MS.220         	15.447         	4.185
MS.221         	15.417         	4.115
MS.222         	15.387         	4.165
MS.223         	15.355         	4.304
MS.224         	15.325         	4.195
MS.225         	15.295         	3.998
MS.226         	15.265         	4.046
MS.227         	15.233         	3.932
MS.228         	15.202         	3.99
MS.229         	15.172         	3.503
MS.230         	15.142         	3.916
MS.231         	15.112         	3.714
MS.232         	15.082         	3.4
MS.233         	15.052         	3.188
MS.234         	15.023         	2.637
MS.235         	14.992         	3.245
MS.236         	14.962         	3.239
MS.237         	14.932         	3.158
MS.238         	14.902         	3.055
MS.239         	14.872         	2.612
MS.240         	14.842         	2.725
MS.241         	14.812         	2.733
MS.242         	14.782         	2.84
MS.243         	14.752         	2.516
MS.244         	14.725         	2.492
MS.245         	14.695         	2.554
MS.246         	14.665         	2.359
MS.247         	14.635         	2.423
MS.248         	14.608         	2.083
MS.249         	14.577         	2.26
MS.250         	14.547         	2.262
MS.251         	14.52          	2.201
MS.252         	14.49          	2.095
MS.253         	14.462         	2.125
MS.254         	14.432         	1.905
MS.255         	14.405         	1.865
MS.256         	14.375         	1.881
MS.257         	14.347         	1.996
MS.258         	14.318         	1.93
MS.259         	14.29          	1.992
MS.260         	14.26          	1.72
MS.261         	14.233         	1.885
MS.262         	14.202         	1.865
MS.263         	14.175         	1.911
MS.264         	14.148         	1.922
MS.265         	14.117         	1.758
MS.266         	14.09          	1.503
MS.267         	14.062         	1.722
MS.268         	14.035         	1.47
MS.269         	14.005         	1.46
MS.270         	13.977         	1.428
MS.271         	13.95          	1.648
MS.272         	13.922         	1.531
MS.273         	13.895         	1.652
MS.274         	13.867         	1.345
MS.275         	13.84          	1.281
MS.276         	13.812         	1.527
MS.277         	13.785         	1.428
MS.278         	13.755         	1.009
MS.279         	13.727         	1.311
MS.280         	13.702         	1.2
MS.281         	13.675         	1.513
MS.282         	13.648         	1.059
MS.283         	13.62          	1.178
MS.284         	13.592         	1.164
MS.285         	13.565         	1.237
MS.286         	13.537         	1.088
MS.287         	13.51          	1.013
MS.288         	13.485         	0.991
MS.289         	13.457         	0.892
MS.290         	13.43          	1.082
MS.291         	13.403         	0.918
MS.292         	13.377         	0.967
MS.293         	13.35          	0.802
MS.294         	13.322         	0.765
MS.295         	13.297         	0.87
MS.296         	13.27          	0.91
MS.297         	13.242         	0.786
MS.298         	13.217         	0.884
MS.299         	13.19          	0.725
MS.300         	13.165         	0.804
MS.301         	13.137         	0.824
MS.302         	13.112         	0.715
MS.303         	13.085         	0.546
MS.304         	13.06          	0.767
MS.305         	13.032         	0.721
MS.306         	13.007         	0.711
MS.307         	12.98          	0.769
MS.308         	12.955         	0.725
MS.309         	12.93          	0.616
MS.310         	12.903         	0.725
MS.311         	12.877         	0.636
MS.312         	12.852         	0.683
MS.313         	12.825         	0.671
MS.314         	12.8           	0.693
MS.315         	12.775         	0.548
MS.316         	12.75          	0.572
MS.317         	12.725         	0.618
MS.318         	12.697         	0.5
MS.319         	12.672         	0.495
MS.320         	12.648         	0.489
MS.321         	12.622         	0.506
MS.322         	12.597         	0.467
MS.323         	12.572         	0.53
MS.324         	12.547         	0.568
MS.325         	12.523         	0.497
MS.326         	12.497         	0.415
MS.327         	12.472         	0.483
MS.328         	12.447         	0.421
MS.329         	12.422         	0.465
MS.330         	12.398         	0.312
MS.331         	12.372         	0.336
MS.332         	12.347         	0.471
MS.333         	12.322         	0.435
MS.334         	12.297         	0.387
MS.335         	12.275         	0.308
MS.336         	12.25          	0.282
MS.337         	12.225         	0.312
MS.338         	12.2           	0.308
MS.339         	12.177         	0.31
MS.340         	12.153         	0.306
MS.341         	12.127         	0.379
MS.342         	12.102         	0.391
MS.343         	12.08          	0.316
MS.344         	12.055         	0.266
MS.345         	12.03          	0.308
MS.346         	12.007         	0.232
MS.347         	11.983         	0.248
MS.348         	11.96          	0.246
MS.349         	11.935         	0.3
MS.350         	11.912         	0.238
MS.351         	11.887         	0.32
MS.352         	11.865         	0.171
MS.353         	11.84          	0.216
MS.354         	11.818         	0.232
MS.355         	11.792         	0.209
MS.356         	11.77          	0.224
MS.357         	11.745         	0.167
MS.358         	11.722         	0.179
MS.359         	11.7           	0.151
MS.360         	11.675         	0.163
MS.361         	11.653         	0.155
MS.362         	11.63          	0.163
MS.363         	11.605         	0.159
MS.364         	11.582         	0.149
MS.365         	11.56          	0.155
MS.366         	11.535         	0.147
MS.367         	11.512         	0.149
MS.368         	11.49          	0.175
MS.369         	11.467         	0.165
MS.370         	11.445         	0.157
MS.371         	11.422         	0.153
MS.372         	11.398         	0.161
MS.373         	11.375         	0.161
MS.374         	11.352         	0.147
MS.375         	11.33          	0.151
MS.376         	11.307         	0.171
MS.377         	11.285         	0.153
MS.378         	11.262         	0.175
MS.379         	11.24          	0.169
MS.380         	11.217         	0.173
MS.381         	11.195         	0.175
MS.382         	11.172         	0.167
MS.383         	11.15          	0.083
MS.384         	11.127         	0.171
MS.385         	11.105         	0.161
MS.386         	11.085         	0.173
MS.387         	11.062         	0.161
MS.388         	11.04          	0.097
MS.389         	11.017         	0.075
MS.390         	10.995         	0.161
MS.391         	10.972         	0.075
MS.392         	10.952         	0.165
MS.393         	10.93          	0.083
MS.394         	10.907         	0.167
MS.395         	10.885         	0.169
MS.396         	10.865         	0.167
MS.397         	10.842         	0.171
MS.398         	10.82          	0.079
MS.399         	10.8           	0.079
MS.400         	10.778         	0.077
MS.401         	10.757         	0.077
MS.402         	10.735         	0.075
MS.403         	10.712         	0.163
MS.404         	10.693         	0.079
MS.405         	10.67          	0.167
MS.406         	10.65          	0.077
MS.407         	10.627         	0.077
MS.408         	10.608         	0.079
MS.409         	10.585         	0.079
MS.410         	10.565         	0.079
MS.411         	10.542         	0.083
MS.412         	10.523         	0.077
MS.413         	10.5           	0.079
MS.414         	10.48          	0.079
MS.415         	10.46          	0.081
MS.416         	10.438         	0.077
MS.417         	10.417         	0.077
MS.418         	10.398         	0.073
MS.419         	10.375         	0.081
MS.420         	10.355         	0.079
MS.421         	10.335         	0.077
MS.422         	10.315         	0.079
MS.423         	10.292         	0.083
MS.424         	10.273         	0.081
MS.425         	10.252         	0.089
MS.426         	10.233         	0.077
MS.427         	10.212         	0.079
MS.428         	10.19          	0.079
MS.429         	10.17          	0.077
MS.430         	10.15          	0.075
MS.431         	10.13          	0.079
MS.432         	10.11          	0.079
MS.433         	10.09          	0.079
MS.434         	10.07          	0.077
MS.435         	10.05          	0.085
MS.436         	10.03          	0.077
MS.437         	10.01          	0.079
MS.438         	9.99           	0.077
MS.439         	9.97           	0.077
MS.440         	9.95           	0.079
MS.441         	9.93           	0.079
MS.442         	9.91           	0.083
MS.443         	9.89           	0.077
MS.444         	9.87           	0.083
MS.445         	9.85           	0.073
MS.446         	9.83           	0.079
MS.447         	9.81           	0.081
MS.448         	9.792          	0.079
MS.449         	9.773          	0.077
MS.450         	9.752          	0.077
MS.451         	9.733          	0.081
MS.452         	9.712          	0.077
MS.453         	9.695          	0.077
MS.454         	9.675          	0.079
MS.455         	9.655          	0.077
MS.456         	9.635          	0.073
MS.457         	9.617          	0.073
MS.458         	9.597          	0.077
MS.459         	9.577          	0.073
MS.460         	9.56           	0.075
MS.461         	9.54           	0.081
MS.462         	9.52           	0.075
MS.463         	9.502          	0.077
MS.464         	9.483          	0.073
MS.465         	9.465          	0.075
MS.466         	9.445          	0.075
MS.467         	9.425          	0.075
MS.468         	9.407          	0.073
MS.469         	9.387          	0.07
MS.470         	9.37           	0.073
MS.471         	9.35           	0.075
MS.472         	9.332          	0.075
MS.473         	9.312          	0.077
MS.474         	9.295          	0.075
MS.475         	9.278          	0.077
MS.476         	9.257          	0.077
MS.477         	9.24           	0.079
MS.478         	9.22           	0.075
MS.479         	9.202          	0.07
MS.480         	9.185          	0.077
MS.481         	9.165          	0.075
MS.482         	9.148          	0.075
MS.483         	9.13           	0.075
MS.484         	9.11           	0.073
MS.485         	9.092          	0.075
MS.486         	9.075          	0.07
MS.487         	9.057          	0.073
MS.488         	9.037          	0.075
MS.489         	9.02           	0.075
MS.490         	9.002          	0.073
MS.491         	8.985          	0.07
MS.492         	8.967          	0.077
MS.493         	8.948          	0.075
MS.494         	8.93           	0.077
MS.495         	8.912          	0.075
MS.496         	8.895          	0.068
MS.497         	8.877          	0.07
MS.498         	8.86           	0.075
MS.499         	8.842          	0.075
MS.500         	8.825          	0.081
MS.501         	8.807          	0.07
MS.502         	8.79           	0.077
MS.503         	8.773          	0.068
MS.504         	8.755          	0.075
MS.505         	8.738          	0.07
MS.506         	8.72           	0.073
MS.507         	8.702          	0.073
MS.508         	8.685          	0.075
MS.509         	8.667          	0.068
MS.510         	8.65           	0.075
MS.511         	8.632          	0.073
MS.512         	8.615          	0.075
MS.513         	8.597          	0.07
MS.514         	8.58           	0.075
MS.515         	8.562          	0.079
MS.516         	8.545          	0.077
MS.517         	8.53           	0.073
MS.518         	8.512          	0.075
MS.519         	8.495          	0.073
MS.520         	8.477          	0.075
MS.521         	8.46           	0.073
MS.522         	8.445          	0.07
MS.523         	8.427          	0.07
MS.524         	8.41           	0.073
MS.525         	8.395          	0.07
MS.526         	8.377          	0.073
MS.527         	8.36           	0.068
MS.528         	8.342          	0.07
MS.529         	8.327          	0.073
MS.530         	8.31           	0.07
MS.531         	8.292          	0.07
MS.532         	8.278          	0.073
MS.533         	8.26           	0.068
MS.534         	8.245          	0.07
MS.535         	8.227          	0.073
MS.536         	8.21           	0.07
MS.537         	8.195          	0.073
MS.538         	8.177          	0.068
MS.539         	8.162          	0.073
DERIVED EXCITABILITY VARIABLES
Program = QTracP 3/4/2020
Threshold method = 6 (optimised for CAP, using data for present condition only)
SR method = 1 (using actual data values)
6.                 	0.000               	Peak response\(mV)
9.                 	34.8                	Temperature ( C)
17.                	23                  	Age (years)
18.                	2                   	Sex (M=1, F=2)

EXTRA VARIABLES

MScPeak(mV) = 12.76
MScS5(mA) = 12.94
MScS50(mA) = 16.23
MScS95(mA) = 20.06
MScNSteps = 3
MScSteps(%) = 6.6
MScStepMax(%) = 2.3
MScD50 = 47
MScSlope = 5.33
MSFPeakAmp(mV) = 13
MSFNUnits = 173
MSFMeanUnitAmp(uV) = 74.9
MSFHuntTime(m) = 2.59
MSFError(%) = 5.3
MSFNLarge = 54.23
MSFMedianAmp(%) = 0.502
MSFMedianAmp(mV) = 0.0651
MSFHalfAmpAmp(%) = 0.7
MSFHalfAmpAmp(mV) = 0.0908
MSFLargestAmp(%) = 1.36
MSFLargestAmp(mV) = 0.177
MSFMeanRS(%) = 2
MSFOpts = 10106121
MScDuration(min) = 4.9
MSFTraces = 409
MSFSizeLimit(uV) = 32.4
MSFLimitType = 1
MSFSmallestAmp(uV) = 32.7

EXTRA WAVEFORMS


!MScan Model
!173
	1	10.9	0.31	2
	2	11.72	0.5	2
	3	11.87	0.39	2
	4	12.02	0.4	2
	5	12.21	0.45	2
	6	12.46	0.79	2
	7	12.57	0.37	2
	8	12.64	0.32	2
	9	12.76	0.49	2
	10	12.95	0.63	2
	11	13.15	0.71	2
	12	13.25	0.39	2
	13	13.32	0.42	2
	14	13.38	0.42	2
	15	13.46	0.6	2
	16	13.56	0.73	2
	17	13.66	0.87	2
	18	13.81	1.22	2
	19	13.91	0.8	2
	20	13.99	0.83	2
	21	14.07	0.61	2
	22	14.15	0.77	2
	23	14.24	0.53	2
	24	14.34	1.2	2
	25	14.42	0.47	2
	26	14.48	0.57	2
	27	14.51	0.4	2
	28	14.53	0.31	2
	29	14.55	0.27	2
	30	14.57	0.32	2
	31	14.61	0.39	2
	32	14.63	0.29	2
	33	14.65	0.32	2
	34	14.67	0.32	2
	35	14.69	0.32	2
	36	14.75	0.81	2
	37	14.81	0.84	2
	38	14.85	0.65	2
	39	14.89	0.71	2
	40	14.93	1.23	2
	41	14.97	0.68	2
	42	15.01	0.9	2
	43	15.05	0.96	2
	44	15.1	0.92	2
	45	15.14	0.92	2
	46	15.18	1.09	2
	47	15.23	0.88	2
	48	15.27	0.7	2
	49	15.3	0.55	2
	50	15.33	0.46	2
	51	15.38	0.79	2
	52	15.4	0.73	2
	53	15.45	0.74	2
	54	15.48	0.38	2
	55	15.5	0.5	2
	56	15.54	0.47	2
	57	15.57	0.5	2
	58	15.58	0.26	2
	59	15.59	0.26	2
	60	15.61	0.27	2
	61	15.62	0.34	2
	62	15.64	0.35	2
	63	15.65	0.4	2
	64	15.67	0.34	2
	65	15.7	0.43	2
	66	15.74	0.49	2
	67	15.75	0.4	2
	68	15.77	0.36	2
	69	15.79	0.33	2
	70	15.81	0.41	2
	71	15.83	0.5	2
	72	15.85	0.61	2
	73	15.87	0.66	2
	74	15.9	0.61	2
	75	15.92	0.57	2
	76	15.96	1.05	2
	77	16	0.77	2
	78	16.05	0.26	2
	79	16.09	1.17	2
	80	16.13	0.99	2
	81	16.18	1.34	2
	82	16.23	1.17	2
	83	16.28	1.11	2
	84	16.34	0.92	2
	85	16.39	0.8	2
	86	16.45	1.02	2
	87	16.5	0.91	2
	88	16.56	0.85	2
	89	16.6	0.77	2
	90	16.65	0.71	2
	91	16.69	0.67	2
	92	16.74	0.62	2
	93	16.78	0.52	2
	94	16.81	0.41	2
	95	16.84	0.56	2
	96	16.86	0.64	2
	97	16.89	0.51	2
	98	16.92	0.45	2
	99	16.95	0.48	2
	100	16.98	0.48	2
	101	17	0.27	2
	102	17.03	0.33	2
	103	17.06	0.45	2
	104	17.08	0.51	2
	105	17.11	0.5	2
	106	17.16	0.81	2
	107	17.21	0.58	2
	108	17.26	0.7	2
	109	17.33	0.83	2
	110	17.4	0.88	2
	111	17.46	0.72	2
	112	17.53	0.78	2
	113	17.6	0.68	2
	114	17.66	0.81	2
	115	17.78	0.72	2
	116	17.86	0.84	2
	117	17.94	0.93	2
	118	17.98	0.31	2
	119	18.02	0.32	2
	120	18.06	0.31	2
	121	18.1	0.53	2
	122	18.14	0.35	2
	123	18.18	0.42	2
	124	18.21	0.39	2
	125	18.25	0.38	2
	126	18.28	0.45	2
	127	18.32	0.55	2
	128	18.38	0.85	2
	129	18.44	0.29	2
	130	18.5	0.88	2
	131	18.68	1.1	2
	132	18.79	0.96	2
	133	18.9	0.98	2
	134	18.99	0.41	1.9
	135	19.03	0.31	2
	136	19.09	0.55	2
	137	19.12	0.27	2
	138	19.14	0.25	2
	139	19.19	0.34	2
	140	19.21	0.25	2
	141	19.23	0.28	2
	142	19.26	0.28	2
	143	19.28	0.28	2
	144	19.31	0.28	2
	145	19.33	0.28	2
	146	19.35	0.3	2
	147	19.38	0.3	2
	148	19.4	0.31	2
	149	19.43	0.29	2
	150	19.45	0.26	2
	151	19.48	0.4	2
	152	19.51	0.44	2
	153	19.55	0.34	2
	154	19.6	0.53	2
	155	19.64	0.53	2
	156	19.68	0.38	2
	157	19.7	0.3	2
	158	19.73	0.32	2
	159	19.76	0.33	2
	160	19.78	0.28	2
	161	19.83	0.51	2
	162	19.87	0.38	2
	163	19.91	0.39	2
	164	19.96	0.36	2
	165	20	0.27	2
	166	20.04	0.39	2
	167	20.08	0.37	2
	168	20.16	0.63	2
	169	20.26	0.55	2
	170	20.56	1.33	2
	171	20.89	0.82	2
	172	21.31	1.24	2
	173	22.03	1.36	2

