File:              	C:\Qtrac\Data\Daniel M Sørensen\MScan multicentre study\Data from centres\Edmonton\Processed data\MSCC01003C.QZD
Name:              	CA.EDM.NC.8.2
Protocol:          	MSCAN-R2
Date:              	3/10/20
Start time:        	18:18:16
Age:               	44
Sex:               	F
Temperature:       	33.3
S/R sites:         	TA
NC/disease:        	NC
Operator:          	KJ
Comments:
M-SCAN DATA (10.1-0.8m)
Scanpts: 65, 75, 577, 616
Stim. (mA)     	Amp. (mV)
MS.1           	25.5           	5.948
MS.2           	25.5           	5.938
MS.3           	25.5           	5.956
MS.4           	25.5           	5.922
MS.5           	25.5           	5.908
MS.6           	25.5           	5.918
MS.7           	25.5           	5.916
MS.8           	25.5           	5.914
MS.9           	25.5           	5.904
MS.10          	25.5           	5.895
MS.11          	25.5           	5.91
MS.12          	25.5           	5.893
MS.13          	25.5           	5.895
MS.14          	25.5           	5.899
MS.15          	25.5           	5.901
MS.16          	25.5           	5.871
MS.17          	25.5           	5.891
MS.18          	25.5           	5.883
MS.19          	25.5           	5.879
MS.20          	25.5           	5.887
MS.21          	25.5           	5.908
MS.22          	25.5           	5.891
MS.23          	25.5           	5.875
MS.24          	25.397         	5.885
MS.25          	25.347         	5.881
MS.26          	25.297         	5.885
MS.27          	25.245         	5.895
MS.28          	25.195         	5.879
MS.29          	25.145         	5.875
MS.30          	25.095         	5.901
MS.31          	25.045         	5.863
MS.32          	24.995         	5.871
MS.33          	24.945         	5.875
MS.34          	24.895         	5.865
MS.35          	24.845         	5.881
MS.36          	24.795         	5.885
MS.37          	24.747         	5.891
MS.38          	24.698         	5.889
MS.39          	24.647         	5.867
MS.40          	24.597         	5.887
MS.41          	24.55          	5.879
MS.42          	24.5           	5.877
MS.43          	24.45          	5.863
MS.44          	24.403         	5.875
MS.45          	24.352         	5.887
MS.46          	24.305         	5.887
MS.47          	24.257         	5.891
MS.48          	24.207         	5.891
MS.49          	24.16          	5.897
MS.50          	24.11          	5.899
MS.51          	24.062         	5.897
MS.52          	24.015         	5.904
MS.53          	23.967         	5.895
MS.54          	23.92          	5.918
MS.55          	23.87          	5.906
MS.56          	23.823         	5.897
MS.57          	23.775         	5.889
MS.58          	23.727         	5.924
MS.59          	23.68          	5.918
MS.60          	23.632         	5.893
MS.61          	23.587         	5.914
MS.62          	23.54          	5.899
MS.63          	23.493         	5.893
MS.64          	23.445         	5.926
MS.65          	23.397         	5.906
MS.66          	23.352         	5.91
MS.67          	23.305         	5.914
MS.68          	23.257         	5.889
MS.69          	23.212         	5.908
MS.70          	23.165         	5.897
MS.71          	23.12          	5.885
MS.72          	23.073         	5.879
MS.73          	23.028         	5.924
MS.74          	22.98          	5.899
MS.75          	22.935         	5.901
MS.76          	22.89          	5.91
MS.77          	22.842         	5.865
MS.78          	22.797         	5.887
MS.79          	22.752         	5.901
MS.80          	22.707         	5.887
MS.81          	22.663         	5.897
MS.82          	22.618         	5.877
MS.83          	22.57          	5.873
MS.84          	22.525         	5.883
MS.85          	22.48          	5.873
MS.86          	22.435         	5.863
MS.87          	22.392         	5.893
MS.88          	22.347         	5.891
MS.89          	22.302         	5.767
MS.90          	22.257         	5.895
MS.91          	22.212         	5.893
MS.92          	22.167         	5.901
MS.93          	22.125         	5.885
MS.94          	22.08          	5.901
MS.95          	22.035         	5.885
MS.96          	21.993         	5.758
MS.97          	21.948         	5.75
MS.98          	21.905         	5.887
MS.99          	21.86          	5.744
MS.100         	21.817         	5.742
MS.101         	21.772         	5.879
MS.102         	21.73          	5.76
MS.103         	21.685         	5.889
MS.104         	21.642         	5.734
MS.105         	21.6           	5.887
MS.106         	21.557         	5.742
MS.107         	21.512         	5.883
MS.108         	21.47          	5.748
MS.109         	21.427         	5.736
MS.110         	21.385         	5.752
MS.111         	21.342         	5.748
MS.112         	21.3           	5.75
MS.113         	21.257         	5.75
MS.114         	21.215         	5.758
MS.115         	21.172         	5.748
MS.116         	21.13          	5.769
MS.117         	21.087         	5.775
MS.118         	21.045         	5.756
MS.119         	21.002         	5.765
MS.120         	20.96          	5.769
MS.121         	20.92          	5.756
MS.122         	20.877         	5.763
MS.123         	20.835         	5.76
MS.124         	20.795         	5.769
MS.125         	20.752         	5.769
MS.126         	20.71          	5.781
MS.127         	20.67          	5.773
MS.128         	20.627         	5.771
MS.129         	20.587         	5.765
MS.130         	20.545         	5.793
MS.131         	20.505         	5.799
MS.132         	20.465         	5.777
MS.133         	20.422         	5.775
MS.134         	20.382         	5.744
MS.135         	20.342         	5.765
MS.136         	20.3           	5.748
MS.137         	20.26          	5.763
MS.138         	20.22          	5.769
MS.139         	20.18          	5.763
MS.140         	20.14          	5.793
MS.141         	20.1           	5.758
MS.142         	20.06          	5.765
MS.143         	20.02          	5.801
MS.144         	19.98          	5.791
MS.145         	19.94          	5.769
MS.146         	19.9           	5.75
MS.147         	19.86          	5.752
MS.148         	19.82          	5.76
MS.149         	19.78          	5.781
MS.150         	19.74          	5.769
MS.151         	19.7           	5.765
MS.152         	19.663         	5.783
MS.153         	19.622         	5.744
MS.154         	19.583         	5.803
MS.155         	19.545         	5.738
MS.156         	19.505         	5.76
MS.157         	19.465         	5.773
MS.158         	19.427         	5.795
MS.159         	19.387         	5.75
MS.160         	19.35          	5.756
MS.161         	19.31          	5.76
MS.162         	19.272         	5.72
MS.163         	19.235         	5.748
MS.164         	19.195         	5.74
MS.165         	19.157         	5.742
MS.166         	19.12          	5.744
MS.167         	19.08          	5.732
MS.168         	19.042         	5.756
MS.169         	19.005         	5.617
MS.170         	18.967         	5.718
MS.171         	18.927         	5.746
MS.172         	18.89          	5.622
MS.173         	18.852         	5.74
MS.174         	18.815         	5.615
MS.175         	18.778         	5.611
MS.176         	18.74          	5.754
MS.177         	18.702         	5.605
MS.178         	18.665         	5.593
MS.179         	18.628         	5.607
MS.180         	18.59          	5.613
MS.181         	18.555         	5.585
MS.182         	18.517         	5.74
MS.183         	18.48          	5.537
MS.184         	18.442         	5.589
MS.185         	18.405         	5.589
MS.186         	18.37          	5.678
MS.187         	18.333         	5.634
MS.188         	18.295         	5.68
MS.189         	18.26          	5.66
MS.190         	18.222         	5.553
MS.191         	18.188         	5.575
MS.192         	18.15          	5.555
MS.193         	18.115         	5.551
MS.194         	18.077         	5.561
MS.195         	18.042         	5.581
MS.196         	18.005         	5.539
MS.197         	17.97          	5.579
MS.198         	17.932         	5.577
MS.199         	17.897         	5.609
MS.200         	17.862         	5.589
MS.201         	17.827         	5.577
MS.202         	17.79          	5.589
MS.203         	17.755         	5.581
MS.204         	17.72          	5.553
MS.205         	17.685         	5.62
MS.206         	17.65          	5.539
MS.207         	17.612         	5.527
MS.208         	17.577         	5.565
MS.209         	17.542         	5.597
MS.210         	17.507         	5.547
MS.211         	17.472         	5.551
MS.212         	17.438         	5.503
MS.213         	17.403         	5.591
MS.214         	17.37          	5.398
MS.215         	17.335         	5.525
MS.216         	17.3           	5.485
MS.217         	17.265         	5.545
MS.218         	17.23          	5.499
MS.219         	17.195         	5.523
MS.220         	17.163         	5.462
MS.221         	17.128         	5.495
MS.222         	17.092         	5.503
MS.223         	17.06          	5.481
MS.224         	17.025         	5.44
MS.225         	16.99          	5.472
MS.226         	16.958         	5.329
MS.227         	16.922         	5.325
MS.228         	16.89          	5.438
MS.229         	16.855         	5.418
MS.230         	16.823         	5.366
MS.231         	16.788         	5.313
MS.232         	16.755         	5.354
MS.233         	16.72          	5.209
MS.234         	16.688         	5.199
MS.235         	16.655         	5.265
MS.236         	16.62          	5.225
MS.237         	16.587         	5.287
MS.238         	16.555         	5.309
MS.239         	16.522         	5.344
MS.240         	16.487         	5.148
MS.241         	16.455         	5.17
MS.242         	16.422         	5.18
MS.243         	16.39          	5.112
MS.244         	16.358         	5.082
MS.245         	16.325         	5.035
MS.246         	16.292         	4.999
MS.247         	16.26          	5.029
MS.248         	16.227         	5.023
MS.249         	16.195         	4.987
MS.250         	16.163         	5.041
MS.251         	16.13          	5.074
MS.252         	16.097         	4.941
MS.253         	16.065         	5.039
MS.254         	16.032         	4.979
MS.255         	16.003         	4.973
MS.256         	15.97          	4.937
MS.257         	15.938         	4.919
MS.258         	15.905         	4.999
MS.259         	15.875         	4.929
MS.260         	15.842         	4.975
MS.261         	15.81          	4.846
MS.262         	15.78          	4.864
MS.263         	15.747         	4.868
MS.264         	15.715         	4.858
MS.265         	15.685         	4.838
MS.266         	15.652         	4.663
MS.267         	15.622         	4.741
MS.268         	15.59          	4.608
MS.269         	15.56          	4.729
MS.270         	15.527         	4.544
MS.271         	15.497         	4.572
MS.272         	15.467         	4.677
MS.273         	15.435         	4.588
MS.274         	15.405         	4.542
MS.275         	15.375         	4.54
MS.276         	15.342         	4.675
MS.277         	15.312         	4.459
MS.278         	15.282         	4.465
MS.279         	15.252         	4.272
MS.280         	15.22          	4.467
MS.281         	15.19          	4.405
MS.282         	15.16          	4.189
MS.283         	15.13          	4.336
MS.284         	15.1           	4.304
MS.285         	15.07          	4.246
MS.286         	15.04          	4.24
MS.287         	15.01          	4.353
MS.288         	14.98          	4.067
MS.289         	14.95          	4.059
MS.290         	14.92          	4.133
MS.291         	14.89          	4.04
MS.292         	14.86          	4.103
MS.293         	14.83          	3.994
MS.294         	14.8           	4.03
MS.295         	14.77          	3.936
MS.296         	14.742         	4.061
MS.297         	14.712         	3.807
MS.298         	14.682         	3.841
MS.299         	14.652         	3.891
MS.300         	14.625         	3.66
MS.301         	14.595         	3.738
MS.302         	14.565         	3.773
MS.303         	14.537         	3.662
MS.304         	14.507         	3.72
MS.305         	14.477         	3.547
MS.306         	14.45          	3.543
MS.307         	14.42          	3.519
MS.308         	14.392         	3.454
MS.309         	14.362         	3.499
MS.310         	14.335         	3.515
MS.311         	14.305         	3.468
MS.312         	14.278         	3.42
MS.313         	14.25          	3.414
MS.314         	14.22          	3.313
MS.315         	14.193         	3.317
MS.316         	14.162         	3.245
MS.317         	14.135         	3.221
MS.318         	14.108         	3.273
MS.319         	14.08          	3.305
MS.320         	14.05          	3.283
MS.321         	14.023         	3.068
MS.322         	13.995         	3.11
MS.323         	13.967         	3.174
MS.324         	13.94          	3.186
MS.325         	13.91          	3.182
MS.326         	13.882         	3.045
MS.327         	13.855         	3.003
MS.328         	13.827         	2.995
MS.329         	13.8           	3.027
MS.330         	13.773         	2.939
MS.331         	13.745         	2.943
MS.332         	13.717         	2.832
MS.333         	13.69          	2.858
MS.334         	13.662         	2.723
MS.335         	13.635         	2.822
MS.336         	13.608         	2.767
MS.337         	13.58          	2.898
MS.338         	13.555         	2.715
MS.339         	13.528         	2.788
MS.340         	13.5           	2.759
MS.341         	13.472         	2.635
MS.342         	13.445         	2.624
MS.343         	13.42          	2.727
MS.344         	13.392         	2.604
MS.345         	13.365         	2.58
MS.346         	13.34          	2.528
MS.347         	13.312         	2.59
MS.348         	13.285         	2.512
MS.349         	13.26          	2.483
MS.350         	13.233         	2.544
MS.351         	13.205         	2.494
MS.352         	13.18          	2.455
MS.353         	13.153         	2.552
MS.354         	13.127         	2.5
MS.355         	13.1           	2.455
MS.356         	13.075         	2.439
MS.357         	13.047         	2.385
MS.358         	13.023         	2.3
MS.359         	12.997         	2.373
MS.360         	12.97          	2.216
MS.361         	12.945         	2.288
MS.362         	12.917         	2.183
MS.363         	12.892         	2.218
MS.364         	12.867         	2.242
MS.365         	12.842         	2.274
MS.366         	12.815         	2.157
MS.367         	12.79          	2.206
MS.368         	12.765         	2.214
MS.369         	12.74          	2.179
MS.370         	12.712         	2.244
MS.371         	12.688         	2.284
MS.372         	12.662         	2.083
MS.373         	12.637         	2.083
MS.374         	12.613         	2.216
MS.375         	12.587         	2.091
MS.376         	12.562         	2.099
MS.377         	12.537         	2.044
MS.378         	12.512         	1.948
MS.379         	12.488         	1.922
MS.380         	12.462         	1.94
MS.381         	12.438         	1.829
MS.382         	12.412         	1.96
MS.383         	12.387         	1.821
MS.384         	12.363         	1.825
MS.385         	12.337         	1.851
MS.386         	12.312         	1.799
MS.387         	12.287         	1.879
MS.388         	12.265         	1.726
MS.389         	12.24          	1.708
MS.390         	12.215         	1.621
MS.391         	12.19          	1.605
MS.392         	12.167         	1.595
MS.393         	12.142         	1.734
MS.394         	12.117         	1.613
MS.395         	12.092         	1.768
MS.396         	12.07          	1.519
MS.397         	12.045         	1.519
MS.398         	12.02          	1.499
MS.399         	11.997         	1.549
MS.400         	11.972         	1.394
MS.401         	11.95          	1.539
MS.402         	11.925         	1.347
MS.403         	11.903         	1.501
MS.404         	11.877         	1.484
MS.405         	11.855         	1.321
MS.406         	11.83          	1.432
MS.407         	11.807         	1.39
MS.408         	11.782         	1.386
MS.409         	11.76          	1.378
MS.410         	11.735         	1.37
MS.411         	11.712         	1.325
MS.412         	11.69          	1.249
MS.413         	11.665         	1.136
MS.414         	11.642         	1.221
MS.415         	11.62          	1.128
MS.416         	11.595         	1.13
MS.417         	11.572         	1.233
MS.418         	11.55          	1.211
MS.419         	11.528         	1.186
MS.420         	11.505         	1.166
MS.421         	11.48          	1.065
MS.422         	11.457         	1.176
MS.423         	11.435         	0.957
MS.424         	11.412         	1.12
MS.425         	11.39          	1.027
MS.426         	11.367         	1.037
MS.427         	11.345         	0.987
MS.428         	11.32          	0.941
MS.429         	11.297         	0.945
MS.430         	11.275         	0.995
MS.431         	11.252         	0.906
MS.432         	11.23          	0.904
MS.433         	11.207         	0.844
MS.434         	11.185         	0.872
MS.435         	11.165         	0.945
MS.436         	11.142         	0.85
MS.437         	11.12          	0.838
MS.438         	11.097         	0.792
MS.439         	11.075         	0.874
MS.440         	11.052         	0.753
MS.441         	11.03          	0.814
MS.442         	11.007         	0.804
MS.443         	10.988         	0.727
MS.444         	10.965         	0.681
MS.445         	10.943         	0.723
MS.446         	10.92          	0.616
MS.447         	10.9           	0.663
MS.448         	10.877         	0.705
MS.449         	10.855         	0.604
MS.450         	10.835         	0.647
MS.451         	10.812         	0.671
MS.452         	10.79          	0.592
MS.453         	10.77          	0.622
MS.454         	10.747         	0.634
MS.455         	10.725         	0.538
MS.456         	10.705         	0.588
MS.457         	10.682         	0.54
MS.458         	10.662         	0.622
MS.459         	10.64          	0.568
MS.460         	10.62          	0.55
MS.461         	10.597         	0.447
MS.462         	10.577         	0.445
MS.463         	10.555         	0.411
MS.464         	10.535         	0.512
MS.465         	10.512         	0.53
MS.466         	10.492         	0.409
MS.467         	10.472         	0.473
MS.468         	10.45          	0.463
MS.469         	10.43          	0.405
MS.470         	10.41          	0.383
MS.471         	10.387         	0.427
MS.472         	10.367         	0.367
MS.473         	10.347         	0.415
MS.474         	10.325         	0.423
MS.475         	10.305         	0.413
MS.476         	10.285         	0.31
MS.477         	10.265         	0.328
MS.478         	10.245         	0.336
MS.479         	10.222         	0.391
MS.480         	10.202         	0.334
MS.481         	10.182         	0.31
MS.482         	10.162         	0.288
MS.483         	10.142         	0.266
MS.484         	10.122         	0.344
MS.485         	10.102         	0.308
MS.486         	10.08          	0.3
MS.487         	10.06          	0.246
MS.488         	10.04          	0.236
MS.489         	10.02          	0.288
MS.490         	10             	0.234
MS.491         	9.98           	0.238
MS.492         	9.96           	0.29
MS.493         	9.94           	0.222
MS.494         	9.92           	0.203
MS.495         	9.903          	0.205
MS.496         	9.882          	0.216
MS.497         	9.863          	0.252
MS.498         	9.842          	0.266
MS.499         	9.823          	0.199
MS.500         	9.802          	0.191
MS.501         	9.782          	0.256
MS.502         	9.762          	0.205
MS.503         	9.745          	0.236
MS.504         	9.725          	0.242
MS.505         	9.705          	0.173
MS.506         	9.685          	0.187
MS.507         	9.667          	0.214
MS.508         	9.648          	0.129
MS.509         	9.627          	0.109
MS.510         	9.608          	0.175
MS.511         	9.59           	0.171
MS.512         	9.57           	0.107
MS.513         	9.552          	0.149
MS.514         	9.532          	0.147
MS.515         	9.512          	0.145
MS.516         	9.495          	0.169
MS.517         	9.475          	0.127
MS.518         	9.455          	0.073
MS.519         	9.438          	0.145
MS.520         	9.417          	0.075
MS.521         	9.4            	0.036
MS.522         	9.38           	0.042
MS.523         	9.363          	0.109
MS.524         	9.342          	0.125
MS.525         	9.325          	0.085
MS.526         	9.305          	0.081
MS.527         	9.287          	0.089
MS.528         	9.27           	0.095
MS.529         	9.25           	0.079
MS.530         	9.233          	0.026
MS.531         	9.212          	0.052
MS.532         	9.195          	0.044
MS.533         	9.177          	0.03
MS.534         	9.158          	0.028
MS.535         	9.14           	0.034
MS.536         	9.122          	0.018
MS.537         	9.102          	0.034
MS.538         	9.085          	0.056
MS.539         	9.068          	0.03
MS.540         	9.05           	0.026
MS.541         	9.03           	0.018
MS.542         	9.012          	0.018
MS.543         	8.995          	0.022
MS.544         	8.977          	0.018
MS.545         	8.96           	0.014
MS.546         	8.94           	0.02
MS.547         	8.922          	0.014
MS.548         	8.905          	0.016
MS.549         	8.887          	0.016
MS.550         	8.87           	0.014
MS.551         	8.852          	0.014
MS.552         	8.835          	0.016
MS.553         	8.818          	0.012
MS.554         	8.8            	0.006
MS.555         	8.783          	0.012
MS.556         	8.765          	0.004
MS.557         	8.747          	0.002
MS.558         	8.73           	0.01
MS.559         	8.712          	0.014
MS.560         	8.695          	0.006
MS.561         	8.677          	0.014
MS.562         	8.66           	0.008
MS.563         	8.642          	0.014
MS.564         	8.625          	0.004
MS.565         	8.608          	0.004
MS.566         	8.59           	0.008
MS.567         	8.573          	0.002
MS.568         	8.557          	0.004
MS.569         	8.54           	0.002
MS.570         	8.523          	0.006
MS.571         	8.505          	0.006
MS.572         	8.488          	0.008
MS.573         	8.47           	0.008
MS.574         	8.455          	0.01
MS.575         	8.438          	0.006
MS.576         	8.42           	0.006
MS.577         	8.403          	0.008
MS.578         	8.387          	0.006
MS.579         	8.37           	0.006
MS.580         	8.352          	0.006
MS.581         	8.337          	0.006
MS.582         	8.32           	0.008
MS.583         	8.302          	0.006
MS.584         	8.287          	0.006
MS.585         	8.27           	0.006
MS.586         	8.255          	0.006
MS.587         	8.238          	0.006
MS.588         	8.22           	0.006
MS.589         	8.205          	0.004
MS.590         	8.188          	0.006
MS.591         	8.172          	0.004
MS.592         	8.155          	0.008
MS.593         	8.14           	0.006
MS.594         	8.122          	0.004
MS.595         	8.108          	0.006
MS.596         	8.09           	0.006
MS.597         	8.075          	0.006
MS.598         	8.057          	0.004
MS.599         	8.042          	0.006
MS.600         	8.025          	0.006
MS.601         	8.01           	0.006
MS.602         	7.995          	0.006
MS.603         	7.977          	0.004
MS.604         	7.962          	0.004
MS.605         	7.945          	0.004
MS.606         	7.93           	0.006
MS.607         	7.915          	0.004
MS.608         	7.898          	0.006
MS.609         	7.882          	0.004
MS.610         	7.867          	0.006
MS.611         	7.852          	0.006
MS.612         	7.835          	0.006
MS.613         	7.82           	0.006
MS.614         	7.805          	0.004
MS.615         	7.787          	0.01
MS.616         	7.773          	0.006
MS.617         	7.757          	0.004
MS.618         	7.742          	0.004
MS.619         	7.727          	0.002
MS.620         	7.71           	0.006
MS.621         	7.695          	0.006
MS.622         	7.68           	0.008
MS.623         	7.665          	0.006
MS.624         	7.65           	0.004
MS.625         	7.635          	0.006
MS.626         	7.62           	0.002
MS.627         	7.605          	0.006
MS.628         	7.59           	0.006
MS.629         	7.572          	0.002
MS.630         	7.557          	0.006
MS.631         	7.543          	0.006
MS.632         	7.527          	0.006
MS.633         	7.512          	0.006
MS.634         	7.497          	0.006
MS.635         	7.482          	0.004
MS.636         	7.467          	0.006
MS.637         	7.452          	0.004
MS.638         	7.438          	0.004
MS.639         	7.422          	0.006
MS.640         	7.41           	0.000
MS.641         	7.395          	0.004
MS.642         	7.38           	0.008
MS.643         	7.365          	0.004
MS.644         	7.35           	0.006
MS.645         	7.335          	0.004
MS.646         	7.32           	0.002
MS.647         	7.305          	0.004
MS.648         	7.29           	0.004
MS.649         	7.277          	0.004
MS.650         	7.262          	0.006
MS.651         	7.247          	0.004
MS.652         	7.233          	0.002
MS.653         	7.217          	0.006
MS.654         	7.205          	0.004
MS.655         	7.19           	0.000
MS.656         	7.175          	0.002
MS.657         	7.16           	0.004
MS.658         	7.148          	0.002
MS.659         	7.132          	0.004
MS.660         	7.117          	0.004
MS.661         	7.105          	0.002
MS.662         	7.09           	0.002
MS.663         	7.075          	0.002
MS.664         	7.062          	0.004
MS.665         	7.047          	0.002
MS.666         	7.032          	0.002
MS.667         	7.02           	0.002
MS.668         	7.005          	0.000
MS.669         	6.992          	0.000
MS.670         	6.977          	0.004
MS.671         	6.962          	0.002
MS.672         	6.95           	0.002
MS.673         	6.935          	0.004
MS.674         	6.922          	0.002
MS.675         	6.907          	0.002
MS.676         	6.895          	0.002
MS.677         	6.88           	0.002
MS.678         	6.867          	0.000
MS.679         	6.852          	0.002
MS.680         	6.84           	0.004
MS.681         	6.825          	0.004
MS.682         	6.812          	0.000
MS.683         	6.797          	0.002
MS.684         	6.785          	0.004
MS.685         	6.77           	0.000
MS.686         	6.757          	0.000
MS.687         	6.745          	0.002
MS.688         	6.73           	0.000
MS.689         	6.717          	0.004
MS.690         	6.705          	0.002
MS.691         	6.69           	0.002
MS.692         	6.677          	0.002
MS.693         	6.662          	0.002
MS.694         	6.65           	0.000
MS.695         	6.637          	0.000
MS.696         	6.625          	0.000
MS.697         	6.61           	0.002
MS.698         	6.597          	0.004
MS.699         	6.585          	0.000
MS.700         	6.57           	0.000
MS.701         	6.557          	0.002
MS.702         	6.545          	0.000
MS.703         	6.532          	0.002
MS.704         	6.517          	0.000
MS.705         	6.505          	0.002
MS.706         	6.492          	0.002
MS.707         	6.48           	0.002
MS.708         	6.467          	0.002
MS.709         	6.455          	0.002
MS.710         	6.44           	0.002
MS.711         	6.427          	0.000
MS.712         	6.415          	0.002
MS.713         	6.402          	0.002
MS.714         	6.39           	0.002
MS.715         	6.378          	0.002
MS.716         	6.365          	0.002
MS.717         	6.352          	0.002
MS.718         	6.338          	0.002
MS.719         	6.325          	0.000
MS.720         	6.312          	0.002
MS.721         	6.3            	0.000
MS.722         	6.287          	0.002
MS.723         	6.275          	0.002
MS.724         	6.262          	0.004
MS.725         	6.25           	0.000
MS.726         	6.237          	0.002
MS.727         	6.225          	0.004
MS.728         	6.213          	0.000
MS.729         	6.2            	0.004
MS.730         	6.188          	0.000
MS.731         	6.175          	0.002
MS.732         	6.162          	0.000
MS.733         	6.152          	0.002
MS.734         	6.14           	0.002
MS.735         	6.128          	0.002
MS.736         	6.115          	0.002
MS.737         	6.102          	0.004
DERIVED EXCITABILITY VARIABLES
Program = QTracP 3/4/2020
Threshold method = 6 (optimised for CAP, using data for present condition only)
SR method = 1 (using actual data values)
6.                 	0.000               	Peak response\(mV)
9.                 	33.3                	Temperature ( C)
17.                	44                  	Age (years)
18.                	2                   	Sex (M=1, F=2)

EXTRA VARIABLES

MScPeak(mV) = 5.9
MScS5(mA) = 10.13
MScS50(mA) = 13.78
MScS95(mA) = 18.25
MScNSteps = 0
MScSteps(%) = 0.0
MScStepMax(%) = 0.0
MScD50 = 62
MScSlope = 4.17
MSFPeakAmp(mV) = 5.9
MSFNUnits = 168
MSFMeanUnitAmp(uV) = 35.1
MSFHuntTime(m) = 3.25
MSFError(%) = 1.72
MSFNLarge = 55.12
MSFMedianAmp(%) = 0.507
MSFMedianAmp(mV) = 0.0299
MSFHalfAmpAmp(%) = 0.644
MSFHalfAmpAmp(mV) = 0.0379
MSFLargestAmp(%) = 2.45
MSFLargestAmp(mV) = 0.144
MSFMeanRS(%) = 2
MSFOpts = 10106121
MScDuration(min) = 9.3
MSFTraces = 552
MSFSizeLimit(uV) = 14.7
MSFLimitType = 1
MSFSmallestAmp(uV) = 15.3

EXTRA WAVEFORMS


!MScan Model
!168
	1	8.97	0.26	2
	2	9.15	0.38	2
	3	9.38	0.79	2
	4	9.52	0.65	2
	5	9.63	0.76	2
	6	9.71	0.39	2
	7	9.95	0.76	2
	8	10.02	0.33	2
	9	10.07	0.3	2
	10	10.12	0.33	2
	11	10.19	0.58	2
	12	10.27	0.55	2
	13	10.39	0.9	2
	14	10.5	0.58	2
	15	10.55	0.68	2
	16	10.61	0.58	2
	17	10.68	0.7	2
	18	10.78	0.88	2
	19	10.81	0.28	2
	20	10.85	0.33	2
	21	10.88	0.36	2
	22	10.9	0.27	2
	23	10.95	0.48	2
	24	10.98	0.28	2
	25	11.01	0.39	2
	26	11.04	0.46	2
	27	11.07	0.41	2
	28	11.1	0.36	2
	29	11.13	0.32	2
	30	11.16	0.33	2
	31	11.19	0.37	2
	32	11.22	0.41	2
	33	11.27	0.62	2
	34	11.32	0.59	2
	35	11.36	0.48	2
	36	11.4	0.62	2
	37	11.44	0.64	2
	38	11.54	1.1	2
	39	11.58	0.51	2
	40	11.62	0.67	2
	41	11.66	0.73	2
	42	11.7	0.5	2
	43	11.74	0.31	2
	44	11.78	0.68	2
	45	11.91	1.72	2
	46	11.99	0.95	2
	47	12.05	0.92	2
	48	12.1	0.75	2
	49	12.17	0.99	2
	50	12.26	1.56	2
	51	12.29	0.38	2
	52	12.31	0.3	2
	53	12.33	0.39	2
	54	12.36	0.38	2
	55	12.38	0.41	2
	56	12.41	0.41	2
	57	12.43	0.4	2
	58	12.45	0.41	2
	59	12.47	0.45	2
	60	12.5	0.46	2
	61	12.53	0.59	2
	62	12.57	0.75	2
	63	12.61	0.48	2
	64	12.71	1.54	2
	65	12.82	0.59	2
	66	12.88	0.68	2
	67	12.94	0.57	2
	68	12.96	0.31	2
	69	12.99	0.39	2
	70	13.02	0.41	2
	71	13.05	0.56	2
	72	13.09	0.52	2
	73	13.13	0.37	2
	74	13.18	0.62	2
	75	13.25	1.03	2
	76	13.33	0.68	2
	77	13.36	0.36	2
	78	13.38	0.42	2
	79	13.41	0.43	2
	80	13.46	0.66	2
	81	13.51	0.63	2
	82	13.56	0.63	2
	83	13.6	0.49	2
	84	13.64	0.69	2
	85	13.68	0.65	2
	86	13.71	0.43	2
	87	13.74	0.37	2
	88	13.77	0.36	2
	89	13.79	0.45	2
	90	13.82	0.49	2
	91	13.86	0.66	2
	92	13.9	0.75	2
	93	13.94	0.77	2
	94	13.98	0.58	2
	95	14.03	0.78	2
	96	14.07	0.74	2
	97	14.11	0.53	2
	98	14.14	0.31	2
	99	14.16	0.31	2
	100	14.18	0.36	2
	101	14.21	0.39	2
	102	14.23	0.38	2
	103	14.25	0.3	2
	104	14.28	0.34	2
	105	14.3	0.46	2
	106	14.33	0.42	2
	107	14.35	0.44	2
	108	14.38	0.57	2
	109	14.41	0.51	2
	110	14.44	0.41	2
	111	14.46	0.42	2
	112	14.48	0.41	2
	113	14.51	0.38	2
	114	14.53	0.47	2
	115	14.55	0.47	2
	116	14.57	0.46	2
	117	14.6	0.44	2
	118	14.62	0.44	2
	119	14.64	0.46	2
	120	14.66	0.46	2
	121	14.69	0.51	2
	122	14.72	0.7	2
	123	14.76	0.64	2
	124	14.79	0.56	2
	125	14.83	0.64	2
	126	14.87	0.74	2
	127	14.91	0.66	2
	128	14.95	0.64	2
	129	14.99	0.66	2
	130	15.04	0.85	2
	131	15.09	0.92	2
	132	15.14	0.89	2
	133	15.19	0.69	2
	134	15.23	0.65	2
	135	15.28	0.74	2
	136	15.37	1.35	2
	137	15.4	1.26	2
	138	15.45	0.88	2
	139	15.48	0.42	2
	140	15.51	0.51	2
	141	15.54	0.49	2
	142	15.58	0.46	2
	143	15.61	0.45	2
	144	15.64	0.43	2
	145	15.67	0.39	2
	146	15.7	0.36	2
	147	15.73	0.41	2
	148	15.78	0.58	2
	149	15.86	1.22	2
	150	16.13	0.4	2
	151	16.2	0.45	2
	152	16.29	0.56	2
	153	16.33	0.37	2
	154	16.36	0.4	2
	155	16.42	0.7	2
	156	16.52	0.78	2
	157	16.6	0.64	2
	158	16.73	1.78	2
	159	16.78	0.31	2
	160	16.83	0.35	2
	161	16.89	0.53	2
	162	16.99	0.93	2
	163	17.29	0.96	2
	164	18.07	1.04	2
	165	18.74	1.22	2
	166	18.98	0.67	2
	167	19.3	0.48	2
	168	21.9	2.45	2

