File:              	C:\Qtrac\Data\Daniel M Sørensen\MScan multicentre study\Data from centres\Edmonton\MSCC00211B.QZD
Name:              	CA.EDM.NC.4.1
Protocol:          	MSCAN-R2
Date:              	11/2/20
Start time:        	13:52:40
Age:               	59
Sex:               	F
Temperature:       	33.7
S/R sites:         	Ulnar Wr-ADM
NC/disease:        	NC
Operator:          	KJ
Comments:
M-SCAN DATA (7.6-1.6m)
Scanpts: 62, 66, 627, 649
Stim. (mA)     	Amp. (mV)
MS.1           	9.5            	8.695
MS.2           	9.5            	8.723
MS.3           	9.5            	8.709
MS.4           	9.5            	8.703
MS.5           	9.5            	8.717
MS.6           	9.5            	8.733
MS.7           	9.5            	8.737
MS.8           	9.5            	8.747
MS.9           	9.5            	8.745
MS.10          	9.5            	8.786
MS.11          	9.5            	8.76
MS.12          	9.5            	8.752
MS.13          	9.5            	8.774
MS.14          	9.5            	8.782
MS.15          	9.5            	8.776
MS.16          	9.5            	8.778
MS.17          	9.5            	8.76
MS.18          	9.5            	8.774
MS.19          	9.5            	8.776
MS.20          	9.5            	8.776
MS.21          	9.5            	8.776
MS.22          	9.5            	8.754
MS.23          	9.5            	8.766
MS.24          	9.462          	8.747
MS.25          	9.443          	8.768
MS.26          	9.425          	8.784
MS.27          	9.405          	8.778
MS.28          	9.387          	8.786
MS.29          	9.367          	8.77
MS.30          	9.35           	8.79
MS.31          	9.33           	8.792
MS.32          	9.312          	8.81
MS.33          	9.292          	8.802
MS.34          	9.275          	8.794
MS.35          	9.255          	8.798
MS.36          	9.238          	8.798
MS.37          	9.22           	8.818
MS.38          	9.2            	8.792
MS.39          	9.182          	8.806
MS.40          	9.165          	8.832
MS.41          	9.145          	8.806
MS.42          	9.127          	8.802
MS.43          	9.11           	8.842
MS.44          	9.09           	8.832
MS.45          	9.073          	8.822
MS.46          	9.055          	8.82
MS.47          	9.037          	8.808
MS.48          	9.017          	8.802
MS.49          	9              	8.824
MS.50          	8.983          	8.834
MS.51          	8.965          	8.846
MS.52          	8.948          	8.838
MS.53          	8.93           	8.838
MS.54          	8.91           	8.822
MS.55          	8.892          	8.846
MS.56          	8.875          	8.816
MS.57          	8.858          	8.832
MS.58          	8.84           	8.828
MS.59          	8.823          	8.834
MS.60          	8.805          	8.864
MS.61          	8.787          	8.868
MS.62          	8.77           	8.854
MS.63          	8.752          	8.852
MS.64          	8.735          	8.842
MS.65          	8.717          	8.86
MS.66          	8.7            	8.848
MS.67          	8.682          	8.82
MS.68          	8.665          	8.838
MS.69          	8.648          	8.822
MS.70          	8.63           	8.844
MS.71          	8.613          	8.842
MS.72          	8.595          	8.816
MS.73          	8.577          	8.844
MS.74          	8.562          	8.844
MS.75          	8.545          	8.812
MS.76          	8.528          	8.82
MS.77          	8.51           	8.802
MS.78          	8.492          	8.832
MS.79          	8.477          	8.848
MS.80          	8.46           	8.84
MS.81          	8.443          	8.796
MS.82          	8.425          	8.834
MS.83          	8.41           	8.842
MS.84          	8.392          	8.826
MS.85          	8.375          	8.83
MS.86          	8.358          	8.836
MS.87          	8.342          	8.842
MS.88          	8.325          	8.83
MS.89          	8.307          	8.786
MS.90          	8.292          	8.806
MS.91          	8.275          	8.798
MS.92          	8.26           	8.796
MS.93          	8.242          	8.76
MS.94          	8.225          	8.737
MS.95          	8.21           	8.774
MS.96          	8.193          	8.768
MS.97          	8.177          	8.766
MS.98          	8.16           	8.798
MS.99          	8.145          	8.721
MS.100         	8.127          	8.683
MS.101         	8.113          	8.772
MS.102         	8.095          	8.747
MS.103         	8.08           	8.75
MS.104         	8.062          	8.649
MS.105         	8.047          	8.741
MS.106         	8.03           	8.635
MS.107         	8.015          	8.681
MS.108         	8              	8.707
MS.109         	7.982          	8.625
MS.110         	7.967          	8.701
MS.111         	7.95           	8.689
MS.112         	7.935          	8.691
MS.113         	7.92           	8.667
MS.114         	7.902          	8.675
MS.115         	7.887          	8.731
MS.116         	7.872          	8.588
MS.117         	7.855          	8.655
MS.118         	7.84           	8.685
MS.119         	7.825          	8.756
MS.120         	7.81           	8.699
MS.121         	7.793          	8.659
MS.122         	7.777          	8.673
MS.123         	7.762          	8.651
MS.124         	7.747          	8.711
MS.125         	7.732          	8.639
MS.126         	7.715          	8.737
MS.127         	7.7            	8.683
MS.128         	7.685          	8.693
MS.129         	7.67           	8.717
MS.130         	7.655          	8.578
MS.131         	7.64           	8.653
MS.132         	7.625          	8.651
MS.133         	7.607          	8.637
MS.134         	7.592          	8.623
MS.135         	7.577          	8.504
MS.136         	7.562          	8.562
MS.137         	7.547          	8.538
MS.138         	7.532          	8.562
MS.139         	7.517          	8.53
MS.140         	7.503          	8.566
MS.141         	7.487          	8.54
MS.142         	7.472          	8.538
MS.143         	7.457          	8.532
MS.144         	7.442          	8.486
MS.145         	7.427          	8.534
MS.146         	7.412          	8.54
MS.147         	7.398          	8.494
MS.148         	7.385          	8.52
MS.149         	7.37           	8.494
MS.150         	7.355          	8.522
MS.151         	7.34           	8.514
MS.152         	7.325          	8.496
MS.153         	7.31           	8.488
MS.154         	7.295          	8.528
MS.155         	7.28           	8.502
MS.156         	7.267          	8.528
MS.157         	7.253          	8.502
MS.158         	7.237          	8.486
MS.159         	7.222          	8.506
MS.160         	7.207          	8.478
MS.161         	7.195          	8.478
MS.162         	7.18           	8.48
MS.163         	7.165          	8.461
MS.164         	7.152          	8.466
MS.165         	7.137          	8.466
MS.166         	7.122          	8.464
MS.167         	7.108          	8.443
MS.168         	7.095          	8.423
MS.169         	7.08           	8.486
MS.170         	7.065          	8.349
MS.171         	7.052          	8.457
MS.172         	7.037          	8.393
MS.173         	7.023          	8.415
MS.174         	7.01           	8.333
MS.175         	6.995          	8.441
MS.176         	6.983          	8.417
MS.177         	6.967          	8.401
MS.178         	6.955          	8.411
MS.179         	6.94           	8.345
MS.180         	6.925          	8.292
MS.181         	6.912          	8.27
MS.182         	6.898          	8.361
MS.183         	6.885          	8.445
MS.184         	6.87           	8.393
MS.185         	6.858          	8.282
MS.186         	6.842          	8.27
MS.187         	6.83           	8.312
MS.188         	6.815          	8.355
MS.189         	6.802          	8.2
MS.190         	6.79           	8.196
MS.191         	6.775          	8.306
MS.192         	6.762          	8.335
MS.193         	6.747          	8.316
MS.194         	6.735          	8.184
MS.195         	6.722          	8.131
MS.196         	6.707          	8.242
MS.197         	6.695          	8.262
MS.198         	6.68           	8.024
MS.199         	6.668          	8.167
MS.200         	6.655          	8.171
MS.201         	6.64           	7.958
MS.202         	6.628          	8.123
MS.203         	6.615          	8.113
MS.204         	6.602          	8.131
MS.205         	6.587          	7.873
MS.206         	6.575          	7.898
MS.207         	6.562          	7.944
MS.208         	6.55           	7.636
MS.209         	6.535          	7.863
MS.210         	6.523          	7.799
MS.211         	6.51           	7.505
MS.212         	6.497          	7.644
MS.213         	6.483          	7.755
MS.214         	6.47           	7.63
MS.215         	6.457          	7.438
MS.216         	6.445          	7.289
MS.217         	6.432          	7.428
MS.218         	6.42           	7.511
MS.219         	6.407          	7.454
MS.220         	6.392          	7.114
MS.221         	6.38           	7.4
MS.222         	6.367          	7.259
MS.223         	6.355          	7.289
MS.224         	6.342          	7.074
MS.225         	6.33           	7.044
MS.226         	6.317          	7.426
MS.227         	6.305          	7.243
MS.228         	6.293          	6.939
MS.229         	6.28           	6.963
MS.230         	6.267          	6.957
MS.231         	6.255          	6.989
MS.232         	6.242          	6.941
MS.233         	6.23           	6.898
MS.234         	6.217          	6.975
MS.235         	6.205          	6.917
MS.236         	6.192          	6.832
MS.237         	6.18           	6.925
MS.238         	6.168          	6.882
MS.239         	6.155          	6.83
MS.240         	6.142          	6.898
MS.241         	6.13           	6.816
MS.242         	6.117          	6.89
MS.243         	6.105          	6.796
MS.244         	6.095          	6.671
MS.245         	6.082          	6.824
MS.246         	6.07           	6.606
MS.247         	6.057          	6.772
MS.248         	6.045          	6.612
MS.249         	6.032          	6.53
MS.250         	6.02           	6.673
MS.251         	6.01           	6.604
MS.252         	5.997          	6.502
MS.253         	5.985          	6.627
MS.254         	5.972          	6.524
MS.255         	5.963          	6.633
MS.256         	5.95           	6.449
MS.257         	5.938          	6.234
MS.258         	5.925          	6.326
MS.259         	5.915          	6.461
MS.260         	5.902          	6.292
MS.261         	5.89           	6.155
MS.262         	5.878          	6.141
MS.263         	5.867          	5.946
MS.264         	5.855          	6.059
MS.265         	5.842          	5.68
MS.266         	5.832          	6.018
MS.267         	5.82           	6.018
MS.268         	5.807          	5.323
MS.269         	5.797          	5.748
MS.270         	5.785          	5.781
MS.271         	5.773          	5.996
MS.272         	5.762          	5.771
MS.273         	5.75           	5.487
MS.274         	5.74           	5.569
MS.275         	5.727          	4.78
MS.276         	5.715          	5.352
MS.277         	5.705          	5.595
MS.278         	5.692          	5.253
MS.279         	5.682          	5.211
MS.280         	5.67           	5.14
MS.281         	5.66           	4.532
MS.282         	5.648          	5.428
MS.283         	5.637          	5.188
MS.284         	5.625          	4.806
MS.285         	5.615          	4.699
MS.286         	5.602          	4.407
MS.287         	5.592          	4.83
MS.288         	5.58           	4.397
MS.289         	5.57           	4.687
MS.290         	5.557          	4.486
MS.291         	5.547          	4.618
MS.292         	5.535          	4.193
MS.293         	5.525          	4.868
MS.294         	5.515          	4.359
MS.295         	5.503          	4.26
MS.296         	5.492          	4.298
MS.297         	5.48           	4.063
MS.298         	5.47           	4.236
MS.299         	5.46           	4.038
MS.300         	5.447          	4.459
MS.301         	5.438          	4.004
MS.302         	5.427          	3.911
MS.303         	5.415          	3.996
MS.304         	5.405          	3.698
MS.305         	5.395          	3.855
MS.306         	5.382          	3.779
MS.307         	5.372          	3.4
MS.308         	5.362          	3.666
MS.309         	5.35           	3.706
MS.310         	5.34           	3.64
MS.311         	5.33           	3.491
MS.312         	5.32           	3.16
MS.313         	5.307          	3.384
MS.314         	5.297          	3.277
MS.315         	5.287          	3.293
MS.316         	5.277          	3.092
MS.317         	5.265          	3.448
MS.318         	5.255          	3.154
MS.319         	5.245          	2.935
MS.320         	5.235          	2.657
MS.321         	5.225          	3.249
MS.322         	5.213          	3.053
MS.323         	5.202          	2.836
MS.324         	5.193          	2.403
MS.325         	5.182          	2.479
MS.326         	5.172          	2.385
MS.327         	5.162          	2.564
MS.328         	5.152          	2.383
MS.329         	5.14           	2.433
MS.330         	5.13           	2.314
MS.331         	5.12           	2.101
MS.332         	5.11           	2.214
MS.333         	5.1            	2.193
MS.334         	5.09           	2.163
MS.335         	5.08           	2.014
MS.336         	5.07           	2.089
MS.337         	5.06           	2.119
MS.338         	5.05           	2.183
MS.339         	5.04           	1.879
MS.340         	5.03           	1.924
MS.341         	5.02           	1.96
MS.342         	5.01           	2.002
MS.343         	5              	1.944
MS.344         	4.99           	1.748
MS.345         	4.98           	2.141
MS.346         	4.97           	1.74
MS.347         	4.96           	1.791
MS.348         	4.95           	1.815
MS.349         	4.94           	1.831
MS.350         	4.93           	1.76
MS.351         	4.92           	1.619
MS.352         	4.91           	1.607
MS.353         	4.9            	1.64
MS.354         	4.89           	1.619
MS.355         	4.88           	1.549
MS.356         	4.87           	1.593
MS.357         	4.86           	1.642
MS.358         	4.852          	1.567
MS.359         	4.842          	1.545
MS.360         	4.832          	1.601
MS.361         	4.822          	1.597
MS.362         	4.812          	1.642
MS.363         	4.802          	1.539
MS.364         	4.793          	1.557
MS.365         	4.785          	1.569
MS.366         	4.775          	1.484
MS.367         	4.765          	1.515
MS.368         	4.755          	1.499
MS.369         	4.745          	1.513
MS.370         	4.737          	1.541
MS.371         	4.727          	1.412
MS.372         	4.717          	1.547
MS.373         	4.707          	1.523
MS.374         	4.697          	1.525
MS.375         	4.69           	1.529
MS.376         	4.68           	1.42
MS.377         	4.67           	1.553
MS.378         	4.662          	1.362
MS.379         	4.652          	1.38
MS.380         	4.642          	1.529
MS.381         	4.632          	1.406
MS.382         	4.625          	1.454
MS.383         	4.615          	1.347
MS.384         	4.605          	1.484
MS.385         	4.597          	1.364
MS.386         	4.588          	1.319
MS.387         	4.577          	1.424
MS.388         	4.57           	1.307
MS.389         	4.56           	1.378
MS.390         	4.55           	1.223
MS.391         	4.543          	1.366
MS.392         	4.532          	1.38
MS.393         	4.523          	1.362
MS.394         	4.515          	1.265
MS.395         	4.505          	1.245
MS.396         	4.497          	1.249
MS.397         	4.487          	1.259
MS.398         	4.477          	1.247
MS.399         	4.47           	1.273
MS.400         	4.46           	1.245
MS.401         	4.452          	1.309
MS.402         	4.443          	1.287
MS.403         	4.435          	1.263
MS.404         	4.425          	1.305
MS.405         	4.415          	1.245
MS.406         	4.407          	1.223
MS.407         	4.398          	1.253
MS.408         	4.39           	1.299
MS.409         	4.38           	1.311
MS.410         	4.372          	1.269
MS.411         	4.362          	1.299
MS.412         	4.355          	1.265
MS.413         	4.345          	1.263
MS.414         	4.338          	1.327
MS.415         	4.33           	1.227
MS.416         	4.32           	1.251
MS.417         	4.312          	1.231
MS.418         	4.302          	1.263
MS.419         	4.295          	1.285
MS.420         	4.285          	1.271
MS.421         	4.277          	1.299
MS.422         	4.267          	1.301
MS.423         	4.26           	1.271
MS.424         	4.253          	1.297
MS.425         	4.242          	1.277
MS.426         	4.235          	1.299
MS.427         	4.225          	1.269
MS.428         	4.217          	1.241
MS.429         	4.21           	1.299
MS.430         	4.2            	1.321
MS.431         	4.193          	1.229
MS.432         	4.185          	1.245
MS.433         	4.175          	1.247
MS.434         	4.168          	1.253
MS.435         	4.16           	1.247
MS.436         	4.15           	1.233
MS.437         	4.142          	1.2
MS.438         	4.135          	1.182
MS.439         	4.125          	1.16
MS.440         	4.117          	1.208
MS.441         	4.11           	1.152
MS.442         	4.1            	1.245
MS.443         	4.092          	1.168
MS.444         	4.085          	1.208
MS.445         	4.077          	0.987
MS.446         	4.068          	1.134
MS.447         	4.06           	1.049
MS.448         	4.052          	0.975
MS.449         	4.045          	0.947
MS.450         	4.035          	1.078
MS.451         	4.027          	0.997
MS.452         	4.02           	1.074
MS.453         	4.012          	1.015
MS.454         	4.005          	1.094
MS.455         	3.995          	0.993
MS.456         	3.987          	0.927
MS.457         	3.98           	0.812
MS.458         	3.972          	0.788
MS.459         	3.965          	0.765
MS.460         	3.955          	0.757
MS.461         	3.947          	0.767
MS.462         	3.94           	0.759
MS.463         	3.932          	0.838
MS.464         	3.925          	0.745
MS.465         	3.918          	0.699
MS.466         	3.91           	0.731
MS.467         	3.9            	0.645
MS.468         	3.892          	0.695
MS.469         	3.885          	0.745
MS.470         	3.877          	0.784
MS.471         	3.87           	0.608
MS.472         	3.862          	0.618
MS.473         	3.855          	0.681
MS.474         	3.847          	0.717
MS.475         	3.84           	0.636
MS.476         	3.832          	0.687
MS.477         	3.825          	0.659
MS.478         	3.817          	0.534
MS.479         	3.807          	0.576
MS.480         	3.8            	0.54
MS.481         	3.793          	0.532
MS.482         	3.785          	0.536
MS.483         	3.777          	0.51
MS.484         	3.77           	0.497
MS.485         	3.762          	0.465
MS.486         	3.755          	0.552
MS.487         	3.747          	0.514
MS.488         	3.74           	0.473
MS.489         	3.732          	0.369
MS.490         	3.725          	0.401
MS.491         	3.717          	0.437
MS.492         	3.71           	0.316
MS.493         	3.702          	0.421
MS.494         	3.695          	0.415
MS.495         	3.688          	0.397
MS.496         	3.682          	0.401
MS.497         	3.675          	0.411
MS.498         	3.668          	0.375
MS.499         	3.66           	0.348
MS.500         	3.652          	0.31
MS.501         	3.645          	0.348
MS.502         	3.637          	0.322
MS.503         	3.63           	0.334
MS.504         	3.622          	0.33
MS.505         	3.615          	0.3
MS.506         	3.607          	0.316
MS.507         	3.602          	0.292
MS.508         	3.595          	0.298
MS.509         	3.587          	0.312
MS.510         	3.58           	0.268
MS.511         	3.572          	0.292
MS.512         	3.565          	0.302
MS.513         	3.557          	0.298
MS.514         	3.55           	0.286
MS.515         	3.545          	0.274
MS.516         	3.537          	0.274
MS.517         	3.53           	0.165
MS.518         	3.523          	0.278
MS.519         	3.515          	0.27
MS.520         	3.51           	0.207
MS.521         	3.502          	0.161
MS.522         	3.495          	0.218
MS.523         	3.487          	0.177
MS.524         	3.48           	0.197
MS.525         	3.475          	0.183
MS.526         	3.467          	0.23
MS.527         	3.46           	0.161
MS.528         	3.452          	0.149
MS.529         	3.447          	0.163
MS.530         	3.44           	0.119
MS.531         	3.432          	0.226
MS.532         	3.425          	0.226
MS.533         	3.42           	0.147
MS.534         	3.412          	0.171
MS.535         	3.405          	0.115
MS.536         	3.398          	0.087
MS.537         	3.392          	0.159
MS.538         	3.385          	0.093
MS.539         	3.377          	0.079
MS.540         	3.372          	0.123
MS.541         	3.365          	0.109
MS.542         	3.357          	0.127
MS.543         	3.35           	0.131
MS.544         	3.345          	0.087
MS.545         	3.337          	0.093
MS.546         	3.33           	0.091
MS.547         	3.325          	0.123
MS.548         	3.317          	0.101
MS.549         	3.31           	0.101
MS.550         	3.305          	0.099
MS.551         	3.297          	0.097
MS.552         	3.293          	0.089
MS.553         	3.285          	0.091
MS.554         	3.277          	0.081
MS.555         	3.273          	0.103
MS.556         	3.265          	0.097
MS.557         	3.257          	0.075
MS.558         	3.252          	0.038
MS.559         	3.245          	0.083
MS.560         	3.24           	0.115
MS.561         	3.232          	0.073
MS.562         	3.225          	0.058
MS.563         	3.22           	0.101
MS.564         	3.212          	0.064
MS.565         	3.207          	0.036
MS.566         	3.2            	0.046
MS.567         	3.195          	0.046
MS.568         	3.188          	0.105
MS.569         	3.182          	0.056
MS.570         	3.175          	0.07
MS.571         	3.168          	0.052
MS.572         	3.162          	0.05
MS.573         	3.155          	0.046
MS.574         	3.15           	0.038
MS.575         	3.142          	0.042
MS.576         	3.138          	0.028
MS.577         	3.13           	0.056
MS.578         	3.125          	0.026
MS.579         	3.117          	0.038
MS.580         	3.112          	0.024
MS.581         	3.105          	0.012
MS.582         	3.1            	0.018
MS.583         	3.092          	0.022
MS.584         	3.087          	0.024
MS.585         	3.08           	0.026
MS.586         	3.075          	0.018
MS.587         	3.07           	0.042
MS.588         	3.062          	0.028
MS.589         	3.057          	0.054
MS.590         	3.05           	0.024
MS.591         	3.045          	0.014
MS.592         	3.037          	0.026
MS.593         	3.033          	0.016
MS.594         	3.025          	0.018
MS.595         	3.02           	0.014
MS.596         	3.015          	0.014
MS.597         	3.007          	0.016
MS.598         	3.002          	0.016
MS.599         	2.995          	0.014
MS.600         	2.99           	0.016
MS.601         	2.985          	0.018
MS.602         	2.977          	0.012
MS.603         	2.972          	0.02
MS.604         	2.965          	0.002
MS.605         	2.96           	0.018
MS.606         	2.955          	0.014
MS.607         	2.947          	0.014
MS.608         	2.942          	0.014
MS.609         	2.938          	0.022
MS.610         	2.93           	0.016
MS.611         	2.925          	0.016
MS.612         	2.92           	0.016
MS.613         	2.912          	0.02
MS.614         	2.908          	0.016
MS.615         	2.902          	0.012
MS.616         	2.895          	0.014
MS.617         	2.89           	0.022
MS.618         	2.885          	0.012
MS.619         	2.877          	0.006
MS.620         	2.872          	0.006
MS.621         	2.867          	0.014
MS.622         	2.862          	0.002
MS.623         	2.855          	0.000
MS.624         	2.85           	0.004
MS.625         	2.845          	0.006
MS.626         	2.837          	0.004
MS.627         	2.832          	0.008
MS.628         	2.827          	0.004
MS.629         	2.822          	0.004
MS.630         	2.815          	0.006
MS.631         	2.81           	0.008
MS.632         	2.805          	0.002
MS.633         	2.8            	0.006
MS.634         	2.793          	0.006
MS.635         	2.787          	0.004
MS.636         	2.783          	0.002
MS.637         	2.777          	0.006
MS.638         	2.77           	0.004
MS.639         	2.765          	0.006
MS.640         	2.76           	0.008
MS.641         	2.755          	0.006
MS.642         	2.75           	0.004
MS.643         	2.742          	0.004
MS.644         	2.737          	0.008
MS.645         	2.732          	0.012
MS.646         	2.727          	0.012
MS.647         	2.722          	0.006
MS.648         	2.717          	0.004
MS.649         	2.71           	0.004
DERIVED EXCITABILITY VARIABLES
Program = QTracP 3/4/2020
Threshold method = 6 (optimised for CAP, using data for present condition only)
SR method = 1 (using actual data values)
6.                 	0.000               	Peak response\(mV)
9.                 	33.7                	Temperature ( C)
17.                	59                  	Age (years)
18.                	2                   	Sex (M=1, F=2)

EXTRA VARIABLES

MScPeak(mV) = 8.75
MScS5(mA) = 3.74
MScS50(mA) = 5.5
MScS95(mA) = 6.84
MScNSteps = 1
MScSteps(%) = 3.1
MScStepMax(%) = 3.1
MScD50 = 49
MScSlope = 6.22
MSFPeakAmp(mV) = 8.85
MSFNUnits = 115
MSFMeanUnitAmp(uV) = 76.9
MSFHuntTime(m) = 3.35
MSFError(%) = 2.89
MSFNLarge = 33.96
MSFMedianAmp(%) = 0.74
MSFMedianAmp(mV) = 0.0654
MSFHalfAmpAmp(%) = 0.995
MSFHalfAmpAmp(mV) = 0.088
MSFLargestAmp(%) = 3.3
MSFLargestAmp(mV) = 0.292
MSFMeanRS(%) = 2
MSFOpts = 10106121
MScDuration(min) = 6
MSFTraces = 588
MSFSizeLimit(uV) = 22.1
MSFLimitType = 1
MSFSmallestAmp(uV) = 24.7

EXTRA WAVEFORMS


!MScan Model
!115
	1	3.1	0.41	2
	2	3.28	0.55	2
	3	3.37	0.37	2
	4	3.44	0.45	2
	5	3.49	0.7	2
	6	3.55	0.38	2
	7	3.58	0.38	2
	8	3.62	0.37	2
	9	3.65	0.3	2
	10	3.68	0.31	2
	11	3.7	0.33	2
	12	3.72	0.29	2
	13	3.74	0.32	2
	14	3.77	0.55	2
	15	3.79	0.38	2
	16	3.81	0.4	2
	17	3.83	0.43	2
	18	3.85	0.39	2
	19	3.9	0.73	2
	20	3.92	0.68	2
	21	3.94	0.49	2
	22	3.96	0.32	2
	23	3.98	0.51	2
	24	4	0.78	2
	25	4	0.54	2
	26	4.02	0.65	2
	27	4.05	0.59	2
	28	4.09	0.99	2
	29	4.12	0.34	2
	30	4.49	0.74	2
	31	4.56	0.55	2
	32	4.62	0.84	2
	33	4.72	0.95	2
	34	4.81	0.7	2
	35	4.89	0.78	2
	36	4.92	0.59	2
	37	4.95	0.63	2
	38	4.97	0.73	2
	39	5	0.74	2
	40	5.03	0.85	2
	41	5.04	0.52	2
	42	5.05	0.92	2
	43	5.07	0.57	2
	44	5.09	0.73	2
	45	5.11	0.85	2
	46	5.12	0.87	2
	47	5.14	1.18	2
	48	5.16	1.12	2
	49	5.18	0.84	2
	50	5.19	0.85	2
	51	5.21	1.21	2
	52	5.23	1.27	2
	53	5.25	1.23	2
	54	5.27	1.41	2
	55	5.29	1.55	2
	56	5.31	1.21	2
	57	5.33	1.1	2
	58	5.35	1.13	2
	59	5.37	1.04	2
	60	5.39	1.1	2
	61	5.41	1.12	2
	62	5.43	1.37	2
	63	5.46	1.37	2
	64	5.49	1.57	2
	65	5.52	1.91	2
	66	5.56	1.74	2
	67	5.6	2.19	2
	68	5.65	2.65	2
	69	5.69	2.41	2
	70	5.74	3.3	2
	71	5.79	2.25	2
	72	5.82	1.82	2
	73	5.85	1.76	2
	74	5.88	1.31	2
	75	5.9	0.74	2
	76	5.92	0.77	2
	77	5.94	0.95	2
	78	5.96	0.94	2
	79	5.98	0.67	2
	80	6.01	1	2
	81	6.04	1.01	2
	82	6.07	0.7	2
	83	6.1	0.52	2
	84	6.14	0.7	2
	85	6.18	0.37	2
	86	6.26	1.05	2
	87	6.3	0.87	2
	88	6.33	0.72	2
	89	6.36	0.89	2
	90	6.39	0.96	2
	91	6.42	1	2
	92	6.44	0.6	2
	93	6.46	0.62	2
	94	6.46	1.46	2
	95	6.48	0.71	2
	96	6.48	1.01	2
	97	6.5	0.76	2
	98	6.52	0.69	2
	99	6.54	0.62	2
	100	6.56	0.8	2
	101	6.59	0.88	2
	102	6.62	0.75	2
	103	6.66	0.85	2
	104	6.85	1.15	2
	105	7.01	1.02	2
	106	7.1	0.54	2
	107	7.29	0.55	2
	108	7.44	0.41	2
	109	7.56	0.57	2
	110	7.62	0.57	1.6
	111	8.02	0.79	2
	112	8.12	0.28	2
	113	8.19	0.33	2
	114	8.26	0.32	2
	115	8.4	0.33	2

