File:              	C:\Qtrac\Data\Daniel M Sørensen\MScan multicentre study\Data from centres\Edmonton\MSCC00201B.QZD
Name:              	CA.EDM.NC.2.1
Protocol:          	MSCAN-R2
Date:              	1/2/20
Start time:        	10:37:55
Age:               	56
Sex:               	F
Temperature:       	30.8
S/R sites:         	Ulnar Wr-ADM
NC/disease:        	NC
Operator:          	RW
Comments:
M-SCAN DATA (7.1-2.6m)
Scanpts: 44, 48, 475, 497
Stim. (mA)     	Amp. (mV)
MS.1           	17.5           	8.48
MS.2           	17.5           	8.524
MS.3           	17.5           	8.482
MS.4           	17.5           	8.516
MS.5           	17.5           	8.514
MS.6           	17.5           	8.502
MS.7           	17.5           	8.468
MS.8           	17.5           	8.472
MS.9           	17.5           	8.474
MS.10          	17.5           	8.472
MS.11          	17.5           	8.522
MS.12          	17.5           	8.488
MS.13          	17.5           	8.474
MS.14          	17.5           	8.514
MS.15          	17.5           	8.48
MS.16          	17.5           	8.48
MS.17          	17.5           	8.492
MS.18          	17.5           	8.461
MS.19          	17.5           	8.53
MS.20          	17.5           	8.506
MS.21          	17.5           	8.54
MS.22          	17.5           	8.5
MS.23          	17.5           	8.482
MS.24          	17.43          	8.453
MS.25          	17.395         	8.472
MS.26          	17.36          	8.482
MS.27          	17.325         	8.486
MS.28          	17.29          	8.49
MS.29          	17.257         	8.512
MS.30          	17.222         	8.411
MS.31          	17.188         	8.455
MS.32          	17.153         	8.498
MS.33          	17.12          	8.478
MS.34          	17.085         	8.484
MS.35          	17.05          	8.466
MS.36          	17.017         	8.496
MS.37          	16.983         	8.516
MS.38          	16.95          	8.498
MS.39          	16.915         	8.457
MS.40          	16.88          	8.445
MS.41          	16.847         	8.443
MS.42          	16.812         	8.482
MS.43          	16.78          	8.488
MS.44          	16.747         	8.494
MS.45          	16.712         	8.488
MS.46          	16.68          	8.464
MS.47          	16.647         	8.502
MS.48          	16.612         	8.498
MS.49          	16.58          	8.496
MS.50          	16.547         	8.466
MS.51          	16.515         	8.488
MS.52          	16.48          	8.472
MS.53          	16.448         	8.52
MS.54          	16.415         	8.461
MS.55          	16.382         	8.453
MS.56          	16.35          	8.427
MS.57          	16.317         	8.478
MS.58          	16.285         	8.466
MS.59          	16.253         	8.488
MS.60          	16.22          	8.437
MS.61          	16.188         	8.441
MS.62          	16.155         	8.421
MS.63          	16.122         	8.449
MS.64          	16.09          	8.461
MS.65          	16.057         	8.455
MS.66          	16.025         	8.415
MS.67          	15.992         	8.474
MS.68          	15.962         	8.492
MS.69          	15.93          	8.453
MS.70          	15.898         	8.486
MS.71          	15.867         	8.472
MS.72          	15.835         	8.482
MS.73          	15.802         	8.504
MS.74          	15.773         	8.429
MS.75          	15.74          	8.451
MS.76          	15.707         	8.496
MS.77          	15.677         	8.441
MS.78          	15.645         	8.421
MS.79          	15.615         	8.474
MS.80          	15.582         	8.459
MS.81          	15.552         	8.437
MS.82          	15.52          	8.49
MS.83          	15.49          	8.437
MS.84          	15.46          	8.455
MS.85          	15.427         	8.435
MS.86          	15.398         	8.461
MS.87          	15.367         	8.449
MS.88          	15.335         	8.476
MS.89          	15.305         	8.423
MS.90          	15.275         	8.407
MS.91          	15.245         	8.395
MS.92          	15.212         	8.407
MS.93          	15.182         	8.375
MS.94          	15.152         	8.385
MS.95          	15.122         	8.367
MS.96          	15.092         	8.359
MS.97          	15.062         	8.375
MS.98          	15.032         	8.421
MS.99          	15.002         	8.337
MS.100         	14.972         	8.306
MS.101         	14.943         	8.341
MS.102         	14.912         	8.337
MS.103         	14.882         	8.304
MS.104         	14.852         	8.347
MS.105         	14.822         	8.349
MS.106         	14.792         	8.316
MS.107         	14.765         	8.343
MS.108         	14.735         	8.339
MS.109         	14.705         	8.284
MS.110         	14.675         	8.204
MS.111         	14.648         	8.222
MS.112         	14.617         	8.24
MS.113         	14.587         	8.266
MS.114         	14.56          	8.29
MS.115         	14.53          	8.188
MS.116         	14.5           	8.256
MS.117         	14.472         	8.25
MS.118         	14.443         	8.274
MS.119         	14.415         	8.232
MS.120         	14.385         	8.159
MS.121         	14.358         	8.169
MS.122         	14.327         	8.18
MS.123         	14.3           	8.167
MS.124         	14.27          	8.149
MS.125         	14.242         	8.115
MS.126         	14.212         	8.131
MS.127         	14.185         	8.117
MS.128         	14.157         	8.151
MS.129         	14.127         	8.165
MS.130         	14.1           	8.099
MS.131         	14.072         	8.039
MS.132         	14.045         	7.859
MS.133         	14.015         	8.022
MS.134         	13.987         	8.03
MS.135         	13.96          	8.157
MS.136         	13.932         	8.051
MS.137         	13.905         	7.887
MS.138         	13.877         	7.7
MS.139         	13.85          	8.216
MS.140         	13.82          	7.891
MS.141         	13.792         	7.956
MS.142         	13.765         	7.964
MS.143         	13.737         	7.827
MS.144         	13.71          	7.809
MS.145         	13.682         	7.797
MS.146         	13.655         	7.908
MS.147         	13.63          	7.827
MS.148         	13.602         	7.557
MS.149         	13.575         	7.549
MS.150         	13.547         	7.73
MS.151         	13.52          	7.303
MS.152         	13.492         	7.581
MS.153         	13.467         	7.569
MS.154         	13.44          	7.197
MS.155         	13.412         	7.328
MS.156         	13.385         	7.108
MS.157         	13.36          	7.279
MS.158         	13.332         	7.09
MS.159         	13.305         	6.86
MS.160         	13.28          	7.108
MS.161         	13.252         	7.116
MS.162         	13.225         	6.88
MS.163         	13.2           	7.046
MS.164         	13.172         	7.112
MS.165         	13.148         	6.79
MS.166         	13.12          	6.846
MS.167         	13.095         	6.792
MS.168         	13.068         	6.977
MS.169         	13.042         	6.604
MS.170         	13.015         	6.516
MS.171         	12.99          	6.502
MS.172         	12.965         	6.449
MS.173         	12.938         	6.383
MS.174         	12.912         	6.683
MS.175         	12.887         	6.375
MS.176         	12.86          	6.429
MS.177         	12.835         	6.192
MS.178         	12.81          	6.214
MS.179         	12.785         	6.165
MS.180         	12.757         	6.341
MS.181         	12.733         	6.133
MS.182         	12.707         	6.026
MS.183         	12.682         	5.962
MS.184         	12.657         	5.847
MS.185         	12.632         	5.827
MS.186         	12.608         	6.047
MS.187         	12.58          	5.672
MS.188         	12.555         	5.694
MS.189         	12.53          	5.672
MS.190         	12.505         	5.787
MS.191         	12.48          	5.732
MS.192         	12.455         	5.7
MS.193         	12.43          	5.519
MS.194         	12.405         	5.581
MS.195         	12.382         	5.63
MS.196         	12.358         	5.746
MS.197         	12.332         	5.356
MS.198         	12.307         	5.344
MS.199         	12.282         	5.565
MS.200         	12.257         	5.229
MS.201         	12.233         	5.227
MS.202         	12.21          	5.19
MS.203         	12.185         	5.317
MS.204         	12.16          	5.168
MS.205         	12.135         	5.307
MS.206         	12.113         	5.146
MS.207         	12.087         	5.112
MS.208         	12.062         	4.937
MS.209         	12.04          	5.309
MS.210         	12.015         	4.983
MS.211         	11.992         	5.039
MS.212         	11.967         	5.09
MS.213         	11.943         	4.802
MS.214         	11.92          	4.854
MS.215         	11.895         	4.933
MS.216         	11.872         	4.391
MS.217         	11.847         	4.389
MS.218         	11.825         	4.612
MS.219         	11.8           	4.824
MS.220         	11.778         	4.512
MS.221         	11.755         	4.639
MS.222         	11.73          	4.494
MS.223         	11.707         	4.302
MS.224         	11.682         	4.387
MS.225         	11.66          	4.236
MS.226         	11.637         	4.411
MS.227         	11.615         	4.063
MS.228         	11.59          	4.218
MS.229         	11.568         	4.073
MS.230         	11.545         	3.835
MS.231         	11.523         	4.298
MS.232         	11.497         	3.758
MS.233         	11.475         	3.905
MS.234         	11.452         	3.891
MS.235         	11.43          	3.66
MS.236         	11.407         	3.861
MS.237         	11.385         	3.847
MS.238         	11.36          	4.044
MS.239         	11.337         	4.195
MS.240         	11.315         	3.69
MS.241         	11.292         	3.652
MS.242         	11.27          	3.746
MS.243         	11.247         	3.535
MS.244         	11.225         	3.515
MS.245         	11.202         	3.45
MS.246         	11.18          	3.468
MS.247         	11.157         	3.46
MS.248         	11.135         	3.69
MS.249         	11.115         	3.474
MS.250         	11.092         	3.438
MS.251         	11.07          	3.434
MS.252         	11.047         	3.257
MS.253         	11.025         	3.221
MS.254         	11.002         	3.261
MS.255         	10.983         	3.434
MS.256         	10.96          	3.241
MS.257         	10.938         	3.142
MS.258         	10.915         	3.305
MS.259         	10.895         	3.207
MS.260         	10.872         	3.013
MS.261         	10.85          	3.035
MS.262         	10.827         	3.144
MS.263         	10.807         	3.319
MS.264         	10.785         	3.064
MS.265         	10.765         	3.003
MS.266         	10.742         	3.047
MS.267         	10.72          	2.923
MS.268         	10.7           	2.796
MS.269         	10.677         	2.884
MS.270         	10.657         	2.874
MS.271         	10.635         	2.731
MS.272         	10.615         	2.852
MS.273         	10.592         	2.608
MS.274         	10.573         	2.701
MS.275         	10.55          	2.544
MS.276         	10.53          	2.385
MS.277         	10.507         	2.471
MS.278         	10.488         	2.357
MS.279         	10.467         	2.49
MS.280         	10.445         	2.377
MS.281         	10.425         	2.24
MS.282         	10.405         	2.254
MS.283         	10.382         	2.278
MS.284         	10.363         	2.175
MS.285         	10.342         	2.278
MS.286         	10.32          	2.21
MS.287         	10.3           	2.187
MS.288         	10.28          	2.077
MS.289         	10.26          	2.234
MS.290         	10.24          	2.06
MS.291         	10.217         	2.264
MS.292         	10.198         	2.139
MS.293         	10.177         	1.982
MS.294         	10.157         	2.034
MS.295         	10.137         	2.127
MS.296         	10.117         	2.083
MS.297         	10.097         	2.065
MS.298         	10.077         	2.137
MS.299         	10.057         	2.004
MS.300         	10.035         	1.964
MS.301         	10.015         	1.994
MS.302         	9.995          	1.897
MS.303         	9.975          	1.877
MS.304         	9.955          	1.897
MS.305         	9.938          	1.789
MS.306         	9.917          	1.774
MS.307         	9.898          	1.926
MS.308         	9.877          	1.823
MS.309         	9.858          	1.855
MS.310         	9.837          	1.746
MS.311         	9.818          	1.795
MS.312         	9.797          	1.748
MS.313         	9.778          	1.738
MS.314         	9.76           	1.674
MS.315         	9.74           	1.694
MS.316         	9.72           	1.635
MS.317         	9.7            	1.793
MS.318         	9.682          	1.468
MS.319         	9.662          	1.587
MS.320         	9.642          	1.545
MS.321         	9.622          	1.519
MS.322         	9.605          	1.499
MS.323         	9.585          	1.613
MS.324         	9.565          	1.472
MS.325         	9.547          	1.515
MS.326         	9.528          	1.4
MS.327         	9.507          	1.573
MS.328         	9.49           	1.507
MS.329         	9.47           	1.335
MS.330         	9.452          	1.368
MS.331         	9.432          	1.311
MS.332         	9.415          	1.339
MS.333         	9.395          	1.331
MS.334         	9.377          	1.277
MS.335         	9.358          	1.257
MS.336         	9.34           	1.194
MS.337         	9.32           	1.247
MS.338         	9.302          	1.116
MS.339         	9.283          	1.227
MS.340         	9.265          	1.051
MS.341         	9.245          	1.096
MS.342         	9.227          	1.142
MS.343         	9.21           	1.122
MS.344         	9.19           	1.172
MS.345         	9.172          	1.148
MS.346         	9.155          	1.065
MS.347         	9.135          	1.09
MS.348         	9.117          	1.053
MS.349         	9.1            	1.134
MS.350         	9.08           	1.07
MS.351         	9.062          	0.896
MS.352         	9.045          	1.005
MS.353         	9.028          	0.655
MS.354         	9.01           	0.784
MS.355         	8.99           	0.719
MS.356         	8.972          	0.894
MS.357         	8.955          	0.665
MS.358         	8.938          	0.868
MS.359         	8.92           	0.626
MS.360         	8.903          	0.916
MS.361         	8.882          	0.773
MS.362         	8.865          	0.733
MS.363         	8.847          	0.683
MS.364         	8.83           	0.641
MS.365         	8.812          	0.779
MS.366         	8.795          	0.57
MS.367         	8.778          	0.647
MS.368         	8.76           	0.695
MS.369         	8.742          	0.719
MS.370         	8.725          	0.713
MS.371         	8.707          	0.745
MS.372         	8.69           	0.725
MS.373         	8.672          	0.463
MS.374         	8.655          	0.681
MS.375         	8.637          	0.677
MS.376         	8.62           	0.596
MS.377         	8.602          	0.598
MS.378         	8.587          	0.582
MS.379         	8.57           	0.437
MS.380         	8.552          	0.471
MS.381         	8.535          	0.399
MS.382         	8.517          	0.312
MS.383         	8.5            	0.342
MS.384         	8.485          	0.346
MS.385         	8.467          	0.354
MS.386         	8.45           	0.379
MS.387         	8.432          	0.272
MS.388         	8.417          	0.419
MS.389         	8.4            	0.312
MS.390         	8.382          	0.318
MS.391         	8.365          	0.324
MS.392         	8.35           	0.278
MS.393         	8.332          	0.354
MS.394         	8.315          	0.274
MS.395         	8.3            	0.246
MS.396         	8.283          	0.435
MS.397         	8.267          	0.232
MS.398         	8.25           	0.234
MS.399         	8.233          	0.328
MS.400         	8.217          	0.226
MS.401         	8.2            	0.222
MS.402         	8.185          	0.238
MS.403         	8.167          	0.238
MS.404         	8.153          	0.262
MS.405         	8.135          	0.193
MS.406         	8.12           	0.199
MS.407         	8.102          	0.187
MS.408         	8.087          	0.201
MS.409         	8.07           	0.183
MS.410         	8.055          	0.189
MS.411         	8.037          	0.216
MS.412         	8.023          	0.193
MS.413         	8.005          	0.185
MS.414         	7.99           	0.195
MS.415         	7.975          	0.177
MS.416         	7.957          	0.151
MS.417         	7.942          	0.193
MS.418         	7.927          	0.155
MS.419         	7.91           	0.151
MS.420         	7.895          	0.153
MS.421         	7.88           	0.153
MS.422         	7.862          	0.177
MS.423         	7.847          	0.155
MS.424         	7.832          	0.153
MS.425         	7.815          	0.157
MS.426         	7.8            	0.161
MS.427         	7.785          	0.151
MS.428         	7.77           	0.157
MS.429         	7.755          	0.153
MS.430         	7.737          	0.149
MS.431         	7.722          	0.145
MS.432         	7.707          	0.137
MS.433         	7.692          	0.153
MS.434         	7.677          	0.153
MS.435         	7.662          	0.151
MS.436         	7.645          	0.153
MS.437         	7.63           	0.131
MS.438         	7.615          	0.131
MS.439         	7.6            	0.151
MS.440         	7.585          	0.133
MS.441         	7.57           	0.149
MS.442         	7.555          	0.145
MS.443         	7.54           	0.151
MS.444         	7.525          	0.147
MS.445         	7.51           	0.145
MS.446         	7.495          	0.149
MS.447         	7.48           	0.145
MS.448         	7.465          	0.131
MS.449         	7.45           	0.131
MS.450         	7.435          	0.133
MS.451         	7.42           	0.145
MS.452         	7.405          	0.147
MS.453         	7.39           	0.133
MS.454         	7.375          	0.129
MS.455         	7.36           	0.131
MS.456         	7.347          	0.131
MS.457         	7.332          	0.127
MS.458         	7.317          	0.131
MS.459         	7.302          	0.127
MS.460         	7.287          	0.131
MS.461         	7.273          	0.133
MS.462         	7.257          	0.137
MS.463         	7.245          	0.129
MS.464         	7.23           	0.129
MS.465         	7.215          	0.129
MS.466         	7.2            	0.131
MS.467         	7.188          	0.131
MS.468         	7.172          	0.127
MS.469         	7.157          	0.125
MS.470         	7.142          	0.129
MS.471         	7.13           	0.129
MS.472         	7.115          	0.129
MS.473         	7.1            	0.129
MS.474         	7.087          	0.127
MS.475         	7.072          	0.129
MS.476         	7.057          	0.127
MS.477         	7.045          	0.129
MS.478         	7.03           	0.127
MS.479         	7.015          	0.127
MS.480         	7.003          	0.123
MS.481         	6.987          	0.127
MS.482         	6.975          	0.129
MS.483         	6.96           	0.125
MS.484         	6.945          	0.123
MS.485         	6.932          	0.125
MS.486         	6.918          	0.125
MS.487         	6.905          	0.125
MS.488         	6.89           	0.125
MS.489         	6.878          	0.125
MS.490         	6.862          	0.127
MS.491         	6.85           	0.125
MS.492         	6.835          	0.123
MS.493         	6.822          	0.123
MS.494         	6.807          	0.123
MS.495         	6.795          	0.121
MS.496         	6.782          	0.123
MS.497         	6.767          	0.123
DERIVED EXCITABILITY VARIABLES
Program = QTracP 3/4/2020
Threshold method = 6 (optimised for CAP, using data for present condition only)
SR method = 1 (using actual data values)
6.                 	0.000               	Peak response\(mV)
9.                 	30.8                	Temperature ( C)
17.                	56                  	Age (years)
18.                	2                   	Sex (M=1, F=2)

EXTRA VARIABLES

MScPeak(mV) = 8.37
MScS5(mA) = 8.39
MScS50(mA) = 11.5
MScS95(mA) = 13.89
MScNSteps = 1
MScSteps(%) = 2.6
MScStepMax(%) = 2.6
MScD50 = 48
MScSlope = 4.42
MSFPeakAmp(mV) = 8.36
MSFNUnits = 120
MSFMeanUnitAmp(uV) = 69.7
MSFHuntTime(m) = 2.08
MSFError(%) = 4.31
MSFNLarge = 38.96
MSFMedianAmp(%) = 0.744
MSFMedianAmp(mV) = 0.0623
MSFHalfAmpAmp(%) = 0.98
MSFHalfAmpAmp(mV) = 0.082
MSFLargestAmp(%) = 2.38
MSFLargestAmp(mV) = 0.199
MSFMeanRS(%) = 2
MSFOpts = 10106121
MScDuration(min) = 4.5
MSFTraces = 454
MSFSizeLimit(uV) = 20.9
MSFLimitType = 1
MSFSmallestAmp(uV) = 23.8

EXTRA WAVEFORMS


!MScan Model
!120
	1	7.66	0.29	2
	2	8.01	0.46	2
	3	8.14	0.5	2
	4	8.34	0.89	2
	5	8.44	0.9	2
	6	8.51	0.76	2
	7	8.56	0.6	2
	8	8.64	1.25	2
	9	8.82	1.31	2
	10	8.94	1.36	2
	11	9.02	1.06	2
	12	9.1	0.96	2
	13	9.17	0.9	2
	14	9.24	1.03	2
	15	9.29	0.64	2
	16	9.32	0.53	2
	17	9.36	0.51	2
	18	9.4	0.35	2
	19	9.44	0.36	2
	20	9.47	0.52	2
	21	9.51	0.53	2
	22	9.55	0.51	2
	23	9.58	0.55	2
	24	9.62	0.52	2
	25	9.67	0.62	2
	26	9.73	0.67	2
	27	9.76	0.42	2
	28	9.8	0.47	2
	29	9.84	0.5	2
	30	9.89	0.58	2
	31	9.94	0.57	2
	32	9.99	0.64	2
	33	10.05	0.6	2
	34	10.11	0.63	2
	35	10.19	0.86	2
	36	10.26	0.83	2
	37	10.32	0.98	2
	38	10.35	0.28	2
	39	10.38	0.39	2
	40	10.41	0.55	2
	41	10.44	0.49	2
	42	10.46	0.5	2
	43	10.48	0.38	2
	44	10.5	0.44	2
	45	10.53	0.49	2
	46	10.55	0.67	2
	47	10.57	0.49	2
	48	10.59	0.45	2
	49	10.62	0.46	2
	50	10.64	0.47	2
	51	10.67	0.63	2
	52	10.7	0.71	2
	53	10.74	0.6	2
	54	10.78	0.91	2
	55	10.82	1	2
	56	10.87	0.82	2
	57	10.94	1.1	2
	58	11.02	1.26	2
	59	11.1	1.61	2
	60	11.19	1.23	2
	61	11.3	1.64	2
	62	11.4	1.93	2
	63	11.48	1.5	2
	64	11.55	1.69	2
	65	11.62	1.12	2
	66	11.67	1.18	2
	67	11.73	1.23	2
	68	11.78	1.34	2
	69	11.82	1.18	2
	70	11.87	1.08	2
	71	11.93	1.39	2
	72	12	1.17	2
	73	12.06	1.22	2
	74	12.12	1.18	2
	75	12.18	1.36	2
	76	12.24	1.18	2
	77	12.29	0.78	2
	78	12.34	0.72	2
	79	12.38	0.72	2
	80	12.42	0.76	2
	81	12.46	0.81	2
	82	12.5	0.79	2
	83	12.54	0.69	2
	84	12.57	0.72	2
	85	12.61	0.75	2
	86	12.64	0.62	2
	87	12.67	0.55	2
	88	12.7	0.58	2
	89	12.73	0.61	2
	90	12.76	0.68	2
	91	12.79	0.58	2
	92	12.82	0.61	2
	93	12.84	0.64	2
	94	12.88	0.76	2
	95	12.91	0.89	2
	96	12.95	0.8	2
	97	12.99	0.72	2
	98	13.03	0.83	2
	99	13.07	0.89	2
	100	13.11	0.87	2
	101	13.16	1.05	2
	102	13.21	1.08	2
	103	13.26	1.06	2
	104	13.31	1.11	2
	105	13.36	1.12	2
	106	13.41	1	2
	107	13.46	1.01	2
	108	13.51	1.16	2
	109	13.58	0.81	2
	110	13.64	1.38	2
	111	13.78	1.81	2
	112	14.02	2.38	2
	113	14.26	1.35	2
	114	14.37	0.45	2
	115	14.47	0.56	2
	116	14.58	0.34	2
	117	14.86	0.29	2
	118	15.08	0.74	2
	119	15.32	0.49	2
	120	15.32	0.5	2

