File:              	C:\Qtrac\Data\Daniel M Sørensen\MScan multicentre study\Data from centres\Edmonton\MSCC00204B.QZD
Name:              	CA.EDM.NC.1.2
Protocol:          	MSCAN-R2
Date:              	4/2/20
Start time:        	13:32:05
Age:               	43
Sex:               	M
Temperature:       	34
S/R sites:         	Ulnar Wr-ADM
NC/disease:        	NC
Operator:          	KJ
Comments:          	Second Visit
M-SCAN DATA (7.8-1.8m)
Scanpts: 28, 36, 619, 640
Stim. (mA)     	Amp. (mV)
MS.1           	16.5           	12.355
MS.2           	16.5           	12.439
MS.3           	16.5           	12.367
MS.4           	16.5           	12.349
MS.5           	16.5           	12.423
MS.6           	16.5           	12.431
MS.7           	16.5           	12.413
MS.8           	16.5           	12.454
MS.9           	16.5           	12.468
MS.10          	16.5           	12.45
MS.11          	16.5           	12.466
MS.12          	16.5           	12.494
MS.13          	16.5           	12.526
MS.14          	16.5           	12.49
MS.15          	16.5           	12.514
MS.16          	16.5           	12.512
MS.17          	16.5           	12.508
MS.18          	16.5           	12.454
MS.19          	16.5           	12.516
MS.20          	16.5           	12.51
MS.21          	16.5           	12.534
MS.22          	16.5           	12.528
MS.23          	16.5           	12.524
MS.24          	16.4           	12.56
MS.25          	16.368         	12.54
MS.26          	16.335         	12.514
MS.27          	16.302         	12.526
MS.28          	16.27          	12.53
MS.29          	16.237         	12.53
MS.30          	16.205         	12.494
MS.31          	16.172         	12.482
MS.32          	16.14          	12.548
MS.33          	16.108         	12.556
MS.34          	16.077         	12.52
MS.35          	16.045         	12.512
MS.36          	16.012         	12.514
MS.37          	15.98          	12.494
MS.38          	15.947         	12.512
MS.39          	15.917         	12.536
MS.40          	15.885         	12.542
MS.41          	15.852         	12.512
MS.42          	15.822         	12.48
MS.43          	15.79          	12.52
MS.44          	15.757         	12.494
MS.45          	15.727         	12.492
MS.46          	15.695         	12.464
MS.47          	15.665         	12.494
MS.48          	15.632         	12.496
MS.49          	15.602         	12.452
MS.50          	15.57          	12.482
MS.51          	15.54          	12.443
MS.52          	15.507         	12.435
MS.53          	15.477         	12.409
MS.54          	15.445         	12.409
MS.55          	15.415         	12.431
MS.56          	15.385         	12.401
MS.57          	15.352         	12.389
MS.58          	15.322         	12.425
MS.59          	15.292         	12.391
MS.60          	15.262         	12.389
MS.61          	15.233         	12.371
MS.62          	15.2           	12.351
MS.63          	15.17          	12.351
MS.64          	15.14          	12.307
MS.65          	15.11          	12.341
MS.66          	15.08          	12.311
MS.67          	15.05          	12.262
MS.68          	15.02          	12.284
MS.69          	14.99          	12.298
MS.70          	14.96          	12.298
MS.71          	14.93          	12.296
MS.72          	14.9           	12.268
MS.73          	14.87          	12.262
MS.74          	14.84          	12.282
MS.75          	14.81          	12.268
MS.76          	14.78          	12.313
MS.77          	14.752         	12.232
MS.78          	14.722         	12.298
MS.79          	14.693         	12.242
MS.80          	14.662         	12.232
MS.81          	14.635         	12.204
MS.82          	14.605         	12.246
MS.83          	14.575         	12.19
MS.84          	14.547         	12.246
MS.85          	14.517         	12.268
MS.86          	14.487         	12.25
MS.87          	14.46          	12.18
MS.88          	14.43          	12.204
MS.89          	14.403         	12.218
MS.90          	14.372         	12.196
MS.91          	14.345         	12.161
MS.92          	14.315         	12.153
MS.93          	14.287         	12.168
MS.94          	14.257         	12.157
MS.95          	14.23          	12.168
MS.96          	14.202         	12.214
MS.97          	14.172         	12.147
MS.98          	14.145         	12.121
MS.99          	14.117         	11.958
MS.100         	14.087         	11.942
MS.101         	14.06          	11.966
MS.102         	14.032         	12.063
MS.103         	14.005         	12.129
MS.104         	13.975         	12.006
MS.105         	13.947         	12.164
MS.106         	13.92          	12.025
MS.107         	13.892         	11.934
MS.108         	13.865         	11.958
MS.109         	13.837         	12.037
MS.110         	13.81          	11.992
MS.111         	13.782         	12.059
MS.112         	13.755         	11.839
MS.113         	13.727         	11.99
MS.114         	13.7           	12.016
MS.115         	13.672         	12.01
MS.116         	13.645         	11.819
MS.117         	13.617         	12.031
MS.118         	13.59          	11.871
MS.119         	13.562         	12.129
MS.120         	13.535         	11.656
MS.121         	13.51          	11.96
MS.122         	13.483         	11.839
MS.123         	13.455         	11.922
MS.124         	13.427         	11.765
MS.125         	13.403         	11.898
MS.126         	13.375         	11.608
MS.127         	13.347         	11.551
MS.128         	13.32          	11.446
MS.129         	13.295         	11.65
MS.130         	13.267         	11.724
MS.131         	13.242         	11.718
MS.132         	13.215         	11.39
MS.133         	13.188         	11.608
MS.134         	13.162         	11.455
MS.135         	13.135         	11.451
MS.136         	13.11          	11.158
MS.137         	13.082         	11.203
MS.138         	13.057         	11.66
MS.139         	13.032         	11.297
MS.140         	13.005         	11.283
MS.141         	12.98          	11.217
MS.142         	12.952         	11.177
MS.143         	12.927         	11.326
MS.144         	12.903         	11.297
MS.145         	12.875         	11.352
MS.146         	12.85          	10.762
MS.147         	12.825         	11.33
MS.148         	12.8           	11.275
MS.149         	12.773         	11.257
MS.150         	12.747         	11.164
MS.151         	12.722         	11.303
MS.152         	12.697         	11.616
MS.153         	12.672         	11.477
MS.154         	12.645         	11.465
MS.155         	12.62          	11.062
MS.156         	12.595         	11.205
MS.157         	12.57          	11.038
MS.158         	12.545         	11.152
MS.159         	12.52          	10.883
MS.160         	12.495         	11.376
MS.161         	12.47          	10.878
MS.162         	12.445         	11.128
MS.163         	12.42          	10.707
MS.164         	12.395         	11.03
MS.165         	12.37          	10.637
MS.166         	12.347         	10.782
MS.167         	12.322         	10.504
MS.168         	12.297         	10.81
MS.169         	12.273         	10.788
MS.170         	12.247         	10.46
MS.171         	12.222         	10.486
MS.172         	12.2           	10.794
MS.173         	12.175         	10.524
MS.174         	12.15          	10.159
MS.175         	12.125         	10.182
MS.176         	12.102         	10.425
MS.177         	12.077         	10.196
MS.178         	12.052         	10.012
MS.179         	12.03          	10.035
MS.180         	12.005         	10.302
MS.181         	11.983         	10.155
MS.182         	11.957         	9.964
MS.183         	11.932         	9.736
MS.184         	11.91          	9.851
MS.185         	11.885         	9.946
MS.186         	11.863         	9.551
MS.187         	11.837         	9.225
MS.188         	11.815         	10.002
MS.189         	11.79          	9.749
MS.190         	11.767         	9.632
MS.191         	11.745         	9.364
MS.192         	11.72          	9.193
MS.193         	11.697         	9.602
MS.194         	11.675         	9.672
MS.195         	11.65          	9.521
MS.196         	11.627         	8.961
MS.197         	11.605         	9.416
MS.198         	11.58          	9.372
MS.199         	11.557         	9.41
MS.200         	11.535         	8.81
MS.201         	11.512         	8.866
MS.202         	11.488         	9.168
MS.203         	11.465         	9.142
MS.204         	11.443         	8.858
MS.205         	11.42          	8.729
MS.206         	11.398         	8.675
MS.207         	11.375         	8.604
MS.208         	11.352         	8.752
MS.209         	11.33          	8.415
MS.210         	11.307         	8.435
MS.211         	11.282         	8.602
MS.212         	11.26          	8.486
MS.213         	11.238         	8.464
MS.214         	11.215         	8.548
MS.215         	11.195         	8.433
MS.216         	11.172         	8.661
MS.217         	11.15          	8.365
MS.218         	11.127         	8.375
MS.219         	11.105         	8.278
MS.220         	11.082         	8.169
MS.221         	11.06          	8.468
MS.222         	11.037         	8.351
MS.223         	11.015         	8.099
MS.224         	10.995         	8.188
MS.225         	10.972         	7.817
MS.226         	10.95          	8.347
MS.227         	10.927         	8.165
MS.228         	10.907         	7.932
MS.229         	10.885         	7.95
MS.230         	10.863         	7.859
MS.231         	10.84          	7.972
MS.232         	10.82          	8.18
MS.233         	10.797         	7.702
MS.234         	10.778         	8.039
MS.235         	10.755         	7.444
MS.236         	10.733         	7.875
MS.237         	10.712         	7.821
MS.238         	10.69          	7.865
MS.239         	10.67          	7.307
MS.240         	10.648         	7.666
MS.241         	10.627         	7.746
MS.242         	10.605         	7.392
MS.243         	10.585         	7.41
MS.244         	10.562         	7.348
MS.245         	10.542         	7.326
MS.246         	10.52          	6.886
MS.247         	10.5           	7.134
MS.248         	10.48          	7.126
MS.249         	10.457         	6.896
MS.250         	10.438         	6.812
MS.251         	10.415         	6.989
MS.252         	10.395         	6.659
MS.253         	10.375         	6.413
MS.254         	10.355         	6.584
MS.255         	10.332         	6.701
MS.256         	10.312         	6.552
MS.257         	10.292         	5.763
MS.258         	10.273         	6.693
MS.259         	10.25          	5.95
MS.260         	10.23          	5.45
MS.261         	10.21          	6.012
MS.262         	10.19          	6.23
MS.263         	10.17          	5.744
MS.264         	10.15          	5.408
MS.265         	10.127         	5.871
MS.266         	10.108         	5.344
MS.267         	10.087         	5.098
MS.268         	10.068         	5.424
MS.269         	10.047         	4.981
MS.270         	10.028         	4.882
MS.271         	10.007         	4.248
MS.272         	9.988          	5.052
MS.273         	9.967          	4.981
MS.274         	9.948          	4.343
MS.275         	9.927          	4.904
MS.276         	9.907          	4.687
MS.277         	9.887          	4.32
MS.278         	9.867          	4.177
MS.279         	9.85           	4.488
MS.280         	9.83           	4.296
MS.281         	9.81           	4.576
MS.282         	9.79           	4.461
MS.283         	9.77           	4.23
MS.284         	9.75           	3.986
MS.285         	9.733          	4.216
MS.286         	9.712          	4.073
MS.287         	9.693          	4.008
MS.288         	9.672          	3.636
MS.289         	9.655          	3.928
MS.290         	9.635          	3.895
MS.291         	9.615          	3.577
MS.292         	9.595          	3.819
MS.293         	9.577          	3.563
MS.294         	9.557          	3.444
MS.295         	9.537          	3.656
MS.296         	9.52           	3.811
MS.297         	9.5            	3.293
MS.298         	9.483          	3.358
MS.299         	9.462          	3.47
MS.300         	9.445          	2.872
MS.301         	9.425          	2.616
MS.302         	9.405          	2.846
MS.303         	9.387          	2.693
MS.304         	9.367          	2.552
MS.305         	9.35           	2.375
MS.306         	9.33           	2.884
MS.307         	9.312          	2.737
MS.308         	9.295          	2.498
MS.309         	9.275          	2.312
MS.310         	9.257          	2.63
MS.311         	9.238          	2.661
MS.312         	9.22           	2.332
MS.313         	9.202          	2.193
MS.314         	9.182          	2.914
MS.315         	9.165          	2.614
MS.316         	9.148          	2.274
MS.317         	9.127          	2.048
MS.318         	9.11           	1.94
MS.319         	9.092          	2.252
MS.320         	9.073          	2.04
MS.321         	9.055          	2.097
MS.322         	9.037          	1.907
MS.323         	9.02           	2.028
MS.324         	9              	2.002
MS.325         	8.983          	2.129
MS.326         	8.965          	1.738
MS.327         	8.948          	1.867
MS.328         	8.93           	1.909
MS.329         	8.912          	1.891
MS.330         	8.895          	1.638
MS.331         	8.875          	1.895
MS.332         	8.858          	1.819
MS.333         	8.84           	1.666
MS.334         	8.823          	1.672
MS.335         	8.805          	1.768
MS.336         	8.787          	1.605
MS.337         	8.77           	1.694
MS.338         	8.752          	1.774
MS.339         	8.735          	1.817
MS.340         	8.717          	1.672
MS.341         	8.7            	1.597
MS.342         	8.682          	1.71
MS.343         	8.665          	1.756
MS.344         	8.648          	1.686
MS.345         	8.63           	1.621
MS.346         	8.613          	1.783
MS.347         	8.597          	1.619
MS.348         	8.58           	1.599
MS.349         	8.562          	1.581
MS.350         	8.545          	1.64
MS.351         	8.528          	1.535
MS.352         	8.51           	1.599
MS.353         	8.495          	1.617
MS.354         	8.477          	1.595
MS.355         	8.46           	1.486
MS.356         	8.443          	1.368
MS.357         	8.427          	1.462
MS.358         	8.41           	1.416
MS.359         	8.392          	1.446
MS.360         	8.375          	1.382
MS.361         	8.36           	1.511
MS.362         	8.342          	1.444
MS.363         	8.325          	1.629
MS.364         	8.31           	1.533
MS.365         	8.292          	1.599
MS.366         	8.275          	1.519
MS.367         	8.26           	1.444
MS.368         	8.242          	1.571
MS.369         	8.227          	1.43
MS.370         	8.21           	1.492
MS.371         	8.193          	1.345
MS.372         	8.177          	1.611
MS.373         	8.16           	1.482
MS.374         	8.145          	1.444
MS.375         	8.127          	1.525
MS.376         	8.113          	1.501
MS.377         	8.095          	1.239
MS.378         	8.08           	1.468
MS.379         	8.062          	1.458
MS.380         	8.047          	1.432
MS.381         	8.033          	1.343
MS.382         	8.015          	1.315
MS.383         	8              	1.315
MS.384         	7.982          	1.235
MS.385         	7.967          	1.442
MS.386         	7.952          	0.967
MS.387         	7.935          	1.299
MS.388         	7.92           	1.239
MS.389         	7.905          	1.092
MS.390         	7.887          	0.878
MS.391         	7.872          	1.033
MS.392         	7.857          	1.092
MS.393         	7.84           	0.929
MS.394         	7.825          	0.87
MS.395         	7.81           	0.806
MS.396         	7.795          	0.596
MS.397         	7.777          	0.922
MS.398         	7.762          	1.029
MS.399         	7.747          	0.596
MS.400         	7.732          	0.574
MS.401         	7.717          	0.552
MS.402         	7.7            	0.562
MS.403         	7.685          	0.62
MS.404         	7.67           	0.604
MS.405         	7.655          	0.528
MS.406         	7.64           	0.61
MS.407         	7.625          	0.485
MS.408         	7.61           	0.548
MS.409         	7.595          	0.518
MS.410         	7.58           	0.187
MS.411         	7.562          	0.719
MS.412         	7.547          	0.441
MS.413         	7.532          	0.286
MS.414         	7.517          	0.342
MS.415         	7.503          	0.246
MS.416         	7.487          	0.441
MS.417         	7.472          	0.175
MS.418         	7.457          	0.312
MS.419         	7.442          	0.266
MS.420         	7.427          	0.316
MS.421         	7.415          	0.312
MS.422         	7.4            	0.205
MS.423         	7.385          	0.282
MS.424         	7.37           	0.234
MS.425         	7.355          	0.328
MS.426         	7.34           	0.27
MS.427         	7.325          	0.179
MS.428         	7.31           	0.207
MS.429         	7.295          	0.308
MS.430         	7.282          	0.189
MS.431         	7.267          	0.201
MS.432         	7.253          	0.189
MS.433         	7.237          	0.175
MS.434         	7.222          	0.197
MS.435         	7.21           	0.228
MS.436         	7.195          	0.32
MS.437         	7.18           	0.26
MS.438         	7.165          	0.205
MS.439         	7.152          	0.199
MS.440         	7.137          	0.193
MS.441         	7.122          	0.252
MS.442         	7.11           	0.165
MS.443         	7.095          	0.169
MS.444         	7.08           	0.23
MS.445         	7.067          	0.201
MS.446         	7.052          	0.181
MS.447         	7.037          	0.193
MS.448         	7.025          	0.205
MS.449         	7.01           	0.179
MS.450         	6.995          	0.203
MS.451         	6.983          	0.199
MS.452         	6.967          	0.189
MS.453         	6.955          	0.191
MS.454         	6.94           	0.203
MS.455         	6.927          	0.189
MS.456         	6.912          	0.201
MS.457         	6.9            	0.201
MS.458         	6.885          	0.282
MS.459         	6.872          	0.185
MS.460         	6.858          	0.197
MS.461         	6.845          	0.185
MS.462         	6.83           	0.187
MS.463         	6.817          	0.189
MS.464         	6.802          	0.197
MS.465         	6.79           	0.177
MS.466         	6.775          	0.199
MS.467         	6.762          	0.171
MS.468         	6.747          	0.181
MS.469         	6.735          	0.187
MS.470         	6.722          	0.181
MS.471         	6.707          	0.185
MS.472         	6.695          	0.193
MS.473         	6.682          	0.195
MS.474         	6.668          	0.183
MS.475         	6.655          	0.191
MS.476         	6.642          	0.179
MS.477         	6.628          	0.187
MS.478         	6.615          	0.189
MS.479         	6.602          	0.125
MS.480         	6.587          	0.26
MS.481         	6.575          	0.195
MS.482         	6.562          	0.185
MS.483         	6.55           	0.185
MS.484         	6.535          	0.183
MS.485         	6.523          	0.214
MS.486         	6.51           	0.175
MS.487         	6.497          	0.201
MS.488         	6.485          	0.185
MS.489         	6.47           	0.121
MS.490         	6.457          	0.189
MS.491         	6.445          	0.181
MS.492         	6.432          	0.181
MS.493         	6.42           	0.123
MS.494         	6.407          	0.197
MS.495         	6.395          	0.193
MS.496         	6.38           	0.191
MS.497         	6.367          	0.179
MS.498         	6.355          	0.185
MS.499         	6.342          	0.129
MS.500         	6.33           	0.123
MS.501         	6.317          	0.175
MS.502         	6.305          	0.125
MS.503         	6.293          	0.119
MS.504         	6.28           	0.195
MS.505         	6.267          	0.135
MS.506         	6.255          	0.173
MS.507         	6.242          	0.179
MS.508         	6.23           	0.189
MS.509         	6.217          	0.131
MS.510         	6.205          	0.169
MS.511         	6.192          	0.193
MS.512         	6.18           	0.127
MS.513         	6.168          	0.123
MS.514         	6.155          	0.123
MS.515         	6.142          	0.125
MS.516         	6.13           	0.121
MS.517         	6.117          	0.129
MS.518         	6.108          	0.193
MS.519         	6.095          	0.123
MS.520         	6.082          	0.125
MS.521         	6.07           	0.123
MS.522         	6.057          	0.119
MS.523         	6.045          	0.129
MS.524         	6.032          	0.117
MS.525         	6.023          	0.085
MS.526         	6.01           	0.133
MS.527         	5.997          	0.121
MS.528         	5.985          	0.127
MS.529         	5.972          	0.119
MS.530         	5.963          	0.123
MS.531         	5.95           	0.125
MS.532         	5.938          	0.115
MS.533         	5.925          	0.101
MS.534         	5.915          	0.048
MS.535         	5.902          	0.111
MS.536         	5.89           	0.109
MS.537         	5.88           	0.06
MS.538         	5.867          	0.073
MS.539         	5.855          	0.109
MS.540         	5.842          	0.073
MS.541         	5.832          	0.107
MS.542         	5.82           	0.07
MS.543         	5.807          	0.07
MS.544         	5.797          	0.05
MS.545         	5.785          	0.083
MS.546         	5.775          	0.07
MS.547         	5.762          	0.056
MS.548         	5.75           	0.068
MS.549         	5.74           	0.06
MS.550         	5.727          	0.054
MS.551         	5.717          	0.066
MS.552         	5.705          	0.06
MS.553         	5.692          	0.06
MS.554         	5.682          	0.052
MS.555         	5.67           	0.075
MS.556         	5.66           	0.054
MS.557         	5.648          	0.056
MS.558         	5.637          	0.064
MS.559         	5.625          	0.052
MS.560         	5.615          	0.024
MS.561         	5.602          	0.066
MS.562         	5.592          	0.066
MS.563         	5.58           	0.052
MS.564         	5.57           	0.058
MS.565         	5.557          	0.068
MS.566         	5.547          	0.024
MS.567         	5.537          	0.026
MS.568         	5.525          	0.056
MS.569         	5.515          	0.032
MS.570         	5.503          	0.034
MS.571         	5.492          	0.028
MS.572         	5.483          	0.056
MS.573         	5.47           	0.022
MS.574         	5.46           	0.026
MS.575         	5.447          	0.066
MS.576         	5.438          	0.032
MS.577         	5.427          	0.06
MS.578         	5.415          	0.026
MS.579         	5.405          	0.03
MS.580         	5.395          	0.024
MS.581         	5.382          	0.032
MS.582         	5.372          	0.054
MS.583         	5.362          	0.022
MS.584         	5.352          	0.022
MS.585         	5.34           	0.018
MS.586         	5.33           	0.02
MS.587         	5.32           	0.064
MS.588         	5.307          	0.014
MS.589         	5.297          	0.014
MS.590         	5.287          	0.052
MS.591         	5.277          	0.016
MS.592         	5.267          	0.028
MS.593         	5.255          	0.018
MS.594         	5.245          	0.014
MS.595         	5.235          	0.02
MS.596         	5.225          	0.018
MS.597         	5.215          	0.022
MS.598         	5.202          	0.03
MS.599         	5.193          	0.008
MS.600         	5.182          	0.008
MS.601         	5.172          	0.008
MS.602         	5.162          	0.008
MS.603         	5.152          	0.026
MS.604         	5.142          	0.02
MS.605         	5.132          	0.014
MS.606         	5.12           	0.03
MS.607         	5.11           	0.022
MS.608         	5.1            	0.02
MS.609         	5.09           	0.008
MS.610         	5.08           	0.03
MS.611         	5.07           	0.026
MS.612         	5.06           	0.01
MS.613         	5.05           	0.012
MS.614         	5.04           	0.014
MS.615         	5.03           	0.01
MS.616         	5.02           	0.016
MS.617         	5.01           	0.014
MS.618         	5              	0.018
MS.619         	4.99           	0.004
MS.620         	4.98           	0.02
MS.621         	4.97           	0.014
MS.622         	4.96           	0.014
MS.623         	4.95           	0.016
MS.624         	4.94           	0.014
MS.625         	4.93           	0.016
MS.626         	4.92           	0.008
MS.627         	4.91           	0.014
MS.628         	4.9            	0.016
MS.629         	4.89           	0.014
MS.630         	4.88           	0.014
MS.631         	4.872          	0.012
MS.632         	4.862          	0.006
MS.633         	4.852          	0.012
MS.634         	4.842          	0.008
MS.635         	4.832          	0.012
MS.636         	4.822          	0.018
MS.637         	4.812          	0.02
MS.638         	4.802          	0.008
MS.639         	4.795          	0.012
MS.640         	4.785          	0.008
DERIVED EXCITABILITY VARIABLES
Program = QTracP 3/4/2020
Threshold method = 6 (optimised for CAP, using data for present condition only)
SR method = 1 (using actual data values)
6.                 	0.000               	Peak response\(mV)
9.                 	34                  	Temperature ( C)
17.                	43                  	Age (years)
18.                	1                   	Sex (M=1, F=2)

EXTRA VARIABLES

MScPeak(mV) = 12.45
MScS5(mA) = 7.69
MScS50(mA) = 10.25
MScS95(mA) = 13.52
MScNSteps = 2
MScSteps(%) = 5.4
MScStepMax(%) = 3
MScD50 = 52
MScSlope = 4.55
MSFPeakAmp(mV) = 12.5
MSFNUnits = 103
MSFMeanUnitAmp(uV) = 121.4
MSFHuntTime(m) = 2.67
MSFError(%) = 3.69
MSFNLarge = 32.32
MSFMedianAmp(%) = 0.883
MSFMedianAmp(mV) = 0.11
MSFHalfAmpAmp(%) = 1.06
MSFHalfAmpAmp(mV) = 0.133
MSFLargestAmp(%) = 2.85
MSFLargestAmp(mV) = 0.357
MSFMeanRS(%) = 2
MSFOpts = 10106121
MScDuration(min) = 6
MSFTraces = 613
MSFSizeLimit(uV) = 31.3
MSFLimitType = 1
MSFSmallestAmp(uV) = 38

EXTRA WAVEFORMS


!MScan Model
!103
	1	5.46	0.36	2
	2	5.96	0.42	2
	3	6.34	0.39	2
	4	7.06	0.31	2
	5	7.48	1.01	2
	6	7.58	0.96	2
	7	7.63	0.59	2
	8	7.67	0.4	2
	9	7.7	0.67	2
	10	7.74	0.32	2
	11	7.77	1.74	2
	12	7.77	0.38	2
	13	7.8	0.64	2
	14	7.83	0.66	2
	15	7.86	0.6	2
	16	7.89	0.39	2
	17	7.92	0.71	2
	18	7.98	0.89	2
	19	8.48	0.69	2
	20	8.53	0.56	2
	21	8.63	0.62	2
	22	8.84	0.84	2
	23	8.89	0.3	2
	24	8.97	0.91	2
	25	9.05	1.15	2
	26	9.14	1.72	2
	27	9.32	2.85	2
	28	9.36	0.96	2
	29	9.41	0.64	2
	30	9.43	0.64	2
	31	9.45	0.92	2
	32	9.48	0.87	2
	33	9.52	1.35	2
	34	9.56	1.34	2
	35	9.62	1.9	2
	36	9.67	0.89	2
	37	9.7	0.64	2
	38	9.73	0.73	2
	39	9.76	0.52	2
	40	9.78	1.4	2
	41	9.84	1.47	2
	42	9.93	1.78	2
	43	9.97	1.12	2
	44	10.02	1.6	2
	45	10.06	1.52	2
	46	10.09	0.7	2
	47	10.11	0.88	1.6
	48	10.16	2.25	2
	49	10.22	2.37	2
	50	10.26	1.63	2
	51	10.3	1.04	2
	52	10.33	1.15	2
	53	10.35	0.81	2
	54	10.38	0.81	2
	55	10.4	0.83	2
	56	10.42	0.79	2
	57	10.44	0.57	2
	58	10.46	0.58	2
	59	10.49	0.68	2
	60	10.51	0.75	2
	61	10.54	0.67	2
	62	10.59	1.28	2
	63	10.64	1.07	2
	64	10.77	2.44	2
	65	10.91	1.62	2
	66	10.99	0.99	2
	67	11.07	1.18	2
	68	11.2	1.31	2
	69	11.27	0.74	2
	70	11.33	0.81	2
	71	11.36	0.37	2
	72	11.39	0.39	2
	73	11.43	0.7	2
	74	11.47	0.88	2
	75	11.5	0.78	2
	76	11.54	0.88	2
	77	11.6	1	2
	78	11.69	1.62	2
	79	11.83	1.51	2
	80	11.9	1.28	2
	81	11.94	0.71	2
	82	11.98	0.69	2
	83	12.02	0.71	2
	84	12.07	0.92	2
	85	12.12	1.06	2
	86	12.19	1.24	2
	87	12.28	1.08	2
	88	12.34	0.97	2
	89	12.4	1.06	2
	90	12.47	0.98	2
	91	12.61	1.64	2
	92	13.02	0.89	2
	93	13.15	1.12	2
	94	13.22	0.57	2
	95	13.29	0.69	2
	96	13.43	1.46	2
	97	13.73	1.47	2
	98	14.12	1.06	2
	99	14.45	0.88	2
	100	14.72	0.49	2
	101	15.18	0.65	2
	102	15.36	0.41	2
	103	15.55	0.5	2

