File:              	C:\Qtrac\Data\Daniel M Sørensen\MScan multicentre study\Data from centres\Edmonton\MSCC00304C.QZD
Name:              	CA.EDM.NC.5.2
Protocol:          	MSCAN-R2
Date:              	4/3/20
Start time:        	12:21:31
Age:               	53
Sex:               	F
Temperature:       	31.8
S/R sites:         	CP Kn-TA
NC/disease:        	NC
Operator:          	KJ
Comments:
M-SCAN DATA (6.6-1.6m)
Scanpts: 24, 30, 526, 547
Stim. (mA)     	Amp. (mV)
MS.1           	18.5           	6.955
MS.2           	19             	6.949
MS.3           	19             	6.955
MS.4           	19             	6.937
MS.5           	19             	6.927
MS.6           	19             	6.923
MS.7           	19             	6.925
MS.8           	19             	6.923
MS.9           	19             	6.917
MS.10          	19             	6.917
MS.11          	19             	6.921
MS.12          	19             	6.941
MS.13          	19             	6.919
MS.14          	19             	6.921
MS.15          	19             	6.919
MS.16          	19             	6.913
MS.17          	19             	6.913
MS.18          	19             	6.917
MS.19          	19             	6.896
MS.20          	19             	6.911
MS.21          	19             	6.919
MS.22          	19             	6.907
MS.23          	18.925         	6.917
MS.24          	18.887         	6.915
MS.25          	18.847         	6.919
MS.26          	18.81          	6.921
MS.27          	18.772         	6.923
MS.28          	18.735         	6.913
MS.29          	18.698         	6.913
MS.30          	18.66          	6.917
MS.31          	18.622         	6.913
MS.32          	18.587         	6.913
MS.33          	18.55          	6.905
MS.34          	18.512         	6.919
MS.35          	18.475         	6.896
MS.36          	18.438         	6.903
MS.37          	18.403         	6.905
MS.38          	18.365         	6.911
MS.39          	18.327         	6.917
MS.40          	18.292         	6.915
MS.41          	18.255         	6.911
MS.42          	18.217         	6.907
MS.43          	18.182         	6.903
MS.44          	18.145         	6.911
MS.45          	18.11          	6.917
MS.46          	18.073         	6.903
MS.47          	18.038         	6.909
MS.48          	18             	6.915
MS.49          	17.965         	6.903
MS.50          	17.93          	6.901
MS.51          	17.892         	6.884
MS.52          	17.858         	6.876
MS.53          	17.823         	6.921
MS.54          	17.788         	6.939
MS.55          	17.75          	6.878
MS.56          	17.715         	6.927
MS.57          	17.68          	6.874
MS.58          	17.645         	6.905
MS.59          	17.61          	6.921
MS.60          	17.575         	6.896
MS.61          	17.54          	6.931
MS.62          	17.505         	6.89
MS.63          	17.47          	6.882
MS.64          	17.435         	6.878
MS.65          	17.4           	6.88
MS.66          	17.365         	6.886
MS.67          	17.33          	6.882
MS.68          	17.295         	6.878
MS.69          	17.26          	6.892
MS.70          	17.227         	6.876
MS.71          	17.192         	6.888
MS.72          	17.157         	6.886
MS.73          	17.122         	6.88
MS.74          	17.09          	6.872
MS.75          	17.055         	6.864
MS.76          	17.02          	6.888
MS.77          	16.987         	6.862
MS.78          	16.952         	6.884
MS.79          	16.92          	6.868
MS.80          	16.885         	6.868
MS.81          	16.852         	6.872
MS.82          	16.817         	6.856
MS.83          	16.785         	6.87
MS.84          	16.75          	6.882
MS.85          	16.717         	6.892
MS.86          	16.682         	6.88
MS.87          	16.65          	6.86
MS.88          	16.618         	6.888
MS.89          	16.585         	6.87
MS.90          	16.55          	6.866
MS.91          	16.517         	6.864
MS.92          	16.485         	6.854
MS.93          	16.452         	6.86
MS.94          	16.42          	6.88
MS.95          	16.385         	6.846
MS.96          	16.352         	6.86
MS.97          	16.32          	6.862
MS.98          	16.288         	6.866
MS.99          	16.255         	6.856
MS.100         	16.222         	6.86
MS.101         	16.19          	6.854
MS.102         	16.157         	6.848
MS.103         	16.125         	6.866
MS.104         	16.095         	6.854
MS.105         	16.062         	6.848
MS.106         	16.03          	6.85
MS.107         	15.997         	6.852
MS.108         	15.965         	6.794
MS.109         	15.932         	6.878
MS.110         	15.902         	6.84
MS.111         	15.87          	6.858
MS.112         	15.837         	6.862
MS.113         	15.807         	6.798
MS.114         	15.775         	6.88
MS.115         	15.742         	6.852
MS.116         	15.712         	6.886
MS.117         	15.68          	6.82
MS.118         	15.65          	6.796
MS.119         	15.617         	6.852
MS.120         	15.587         	6.836
MS.121         	15.555         	6.814
MS.122         	15.525         	6.832
MS.123         	15.492         	6.826
MS.124         	15.462         	6.812
MS.125         	15.432         	6.876
MS.126         	15.4           	6.818
MS.127         	15.37          	6.794
MS.128         	15.34          	6.804
MS.129         	15.31          	6.808
MS.130         	15.277         	6.832
MS.131         	15.247         	6.81
MS.132         	15.217         	6.812
MS.133         	15.188         	6.778
MS.134         	15.157         	6.816
MS.135         	15.127         	6.864
MS.136         	15.095         	6.78
MS.137         	15.065         	6.78
MS.138         	15.035         	6.758
MS.139         	15.005         	6.784
MS.140         	14.975         	6.772
MS.141         	14.945         	6.753
MS.142         	14.915         	6.784
MS.143         	14.885         	6.749
MS.144         	14.858         	6.764
MS.145         	14.827         	6.729
MS.146         	14.797         	6.735
MS.147         	14.767         	6.76
MS.148         	14.737         	6.747
MS.149         	14.707         	6.77
MS.150         	14.68          	6.749
MS.151         	14.65          	6.786
MS.152         	14.62          	6.741
MS.153         	14.592         	6.76
MS.154         	14.562         	6.76
MS.155         	14.532         	6.733
MS.156         	14.505         	6.786
MS.157         	14.475         	6.619
MS.158         	14.447         	6.741
MS.159         	14.417         	6.729
MS.160         	14.387         	6.739
MS.161         	14.36          	6.59
MS.162         	14.33          	6.725
MS.163         	14.302         	6.677
MS.164         	14.275         	6.709
MS.165         	14.245         	6.59
MS.166         	14.217         	6.562
MS.167         	14.188         	6.574
MS.168         	14.16          	6.518
MS.169         	14.132         	6.532
MS.170         	14.102         	6.469
MS.171         	14.075         	6.516
MS.172         	14.047         	6.459
MS.173         	14.02          	6.494
MS.174         	13.992         	6.562
MS.175         	13.962         	6.578
MS.176         	13.935         	6.407
MS.177         	13.907         	6.482
MS.178         	13.88          	6.413
MS.179         	13.852         	6.387
MS.180         	13.825         	6.379
MS.181         	13.797         	6.395
MS.182         	13.77          	6.347
MS.183         	13.742         	6.369
MS.184         	13.715         	6.312
MS.185         	13.688         	6.331
MS.186         	13.66          	6.328
MS.187         	13.632         	6.347
MS.188         	13.605         	6.288
MS.189         	13.577         	6.278
MS.190         	13.55          	6.179
MS.191         	13.523         	6.288
MS.192         	13.497         	6.24
MS.193         	13.47          	6.196
MS.194         	13.443         	6.236
MS.195         	13.415         	6.121
MS.196         	13.39          	6.196
MS.197         	13.362         	6.185
MS.198         	13.335         	6.109
MS.199         	13.31          	6.073
MS.200         	13.282         	5.976
MS.201         	13.255         	6.02
MS.202         	13.23          	6.069
MS.203         	13.202         	6.042
MS.204         	13.177         	6.099
MS.205         	13.15          	6.057
MS.206         	13.125         	6.004
MS.207         	13.097         	6.034
MS.208         	13.072         	5.986
MS.209         	13.045         	5.936
MS.210         	13.02          	5.994
MS.211         	12.992         	6.061
MS.212         	12.967         	6.034
MS.213         	12.943         	5.916
MS.214         	12.915         	5.976
MS.215         	12.89          	6.034
MS.216         	12.865         	5.932
MS.217         	12.837         	5.916
MS.218         	12.812         	5.908
MS.219         	12.787         	5.97
MS.220         	12.762         	5.976
MS.221         	12.735         	5.841
MS.222         	12.71          	5.95
MS.223         	12.685         	5.756
MS.224         	12.66          	5.807
MS.225         	12.635         	5.763
MS.226         	12.61          	5.904
MS.227         	12.585         	5.756
MS.228         	12.56          	5.748
MS.229         	12.535         	5.714
MS.230         	12.51          	5.668
MS.231         	12.485         	5.547
MS.232         	12.46          	5.563
MS.233         	12.435         	5.479
MS.234         	12.41          	5.615
MS.235         	12.385         	5.662
MS.236         	12.36          	5.587
MS.237         	12.335         	5.462
MS.238         	12.31          	5.412
MS.239         	12.285         	5.356
MS.240         	12.26          	5.271
MS.241         	12.238         	5.315
MS.242         	12.212         	5.184
MS.243         	12.188         	5.174
MS.244         	12.162         	5.225
MS.245         	12.14          	5.259
MS.246         	12.115         	5.124
MS.247         	12.09          	5.1
MS.248         	12.068         	5.14
MS.249         	12.042         	5.124
MS.250         	12.017         	5.064
MS.251         	11.995         	5.027
MS.252         	11.97          	5.049
MS.253         	11.947         	4.882
MS.254         	11.922         	5.052
MS.255         	11.9           	4.87
MS.256         	11.875         	4.874
MS.257         	11.852         	5.062
MS.258         	11.827         	4.981
MS.259         	11.805         	5.005
MS.260         	11.78          	4.913
MS.261         	11.757         	4.822
MS.262         	11.733         	4.84
MS.263         	11.71          	4.943
MS.264         	11.688         	4.78
MS.265         	11.662         	4.731
MS.266         	11.64          	4.788
MS.267         	11.617         	4.665
MS.268         	11.592         	4.667
MS.269         	11.57          	4.661
MS.270         	11.547         	4.717
MS.271         	11.525         	4.699
MS.272         	11.5           	4.479
MS.273         	11.477         	4.592
MS.274         	11.455         	4.614
MS.275         	11.432         	4.562
MS.276         	11.41          	4.453
MS.277         	11.387         	4.526
MS.278         	11.365         	4.494
MS.279         	11.34          	4.381
MS.280         	11.318         	4.314
MS.281         	11.295         	4.258
MS.282         	11.273         	4.284
MS.283         	11.25          	4.339
MS.284         	11.227         	4.26
MS.285         	11.205         	3.994
MS.286         	11.182         	4.075
MS.287         	11.16          	4.075
MS.288         	11.14          	4.26
MS.289         	11.117         	3.97
MS.290         	11.095         	4.008
MS.291         	11.073         	3.841
MS.292         	11.05          	3.752
MS.293         	11.028         	3.754
MS.294         	11.005         	3.752
MS.295         	10.985         	3.837
MS.296         	10.962         	3.615
MS.297         	10.94          	3.613
MS.298         	10.917         	3.527
MS.299         	10.898         	3.533
MS.300         	10.875         	3.664
MS.301         	10.852         	3.513
MS.302         	10.83          	3.682
MS.303         	10.81          	3.583
MS.304         	10.787         	3.37
MS.305         	10.767         	3.597
MS.306         	10.745         	3.454
MS.307         	10.722         	3.585
MS.308         	10.702         	3.493
MS.309         	10.68          	3.35
MS.310         	10.66          	3.521
MS.311         	10.637         	3.37
MS.312         	10.617         	3.442
MS.313         	10.595         	3.346
MS.314         	10.575         	3.144
MS.315         	10.552         	3.249
MS.316         	10.532         	3.08
MS.317         	10.51          	3.295
MS.318         	10.49          	3.088
MS.319         	10.47          	2.997
MS.320         	10.448         	3.037
MS.321         	10.427         	2.987
MS.322         	10.407         	3.015
MS.323         	10.385         	2.925
MS.324         	10.365         	3.039
MS.325         	10.345         	2.917
MS.326         	10.323         	2.953
MS.327         	10.302         	2.979
MS.328         	10.282         	2.842
MS.329         	10.262         	2.84
MS.330         	10.242         	2.778
MS.331         	10.22          	2.747
MS.332         	10.2           	2.751
MS.333         	10.18          	2.832
MS.334         	10.16          	2.59
MS.335         	10.14          	2.776
MS.336         	10.12          	2.753
MS.337         	10.1           	2.51
MS.338         	10.08          	2.481
MS.339         	10.057         	2.639
MS.340         	10.037         	2.528
MS.341         	10.017         	2.342
MS.342         	9.997          	2.471
MS.343         	9.977          	2.526
MS.344         	9.957          	2.344
MS.345         	9.938          	2.419
MS.346         	9.92           	2.258
MS.347         	9.9            	2.49
MS.348         	9.88           	2.111
MS.349         	9.86           	2.181
MS.350         	9.84           	2.399
MS.351         	9.82           	1.954
MS.352         	9.8            	2.121
MS.353         	9.78           	2.288
MS.354         	9.762          	2.157
MS.355         	9.742          	2.077
MS.356         	9.722          	2.018
MS.357         	9.702          	2.087
MS.358         	9.682          	2.022
MS.359         	9.665          	1.813
MS.360         	9.645          	1.795
MS.361         	9.625          	1.772
MS.362         	9.608          	1.94
MS.363         	9.587          	1.869
MS.364         	9.568          	1.855
MS.365         	9.55           	1.68
MS.366         	9.53           	1.635
MS.367         	9.51           	1.569
MS.368         	9.492          	1.561
MS.369         	9.472          	1.629
MS.370         	9.455          	1.531
MS.371         	9.435          	1.531
MS.372         	9.415          	1.472
MS.373         	9.398          	1.329
MS.374         	9.377          	1.291
MS.375         	9.36           	1.386
MS.376         	9.34           	1.118
MS.377         	9.323          	1.354
MS.378         	9.305          	1.13
MS.379         	9.285          	1.247
MS.380         	9.267          	1.243
MS.381         	9.247          	1.021
MS.382         	9.23           	0.904
MS.383         	9.212          	1.112
MS.384         	9.193          	0.894
MS.385         	9.175          	0.935
MS.386         	9.155          	0.975
MS.387         	9.137          	1.015
MS.388         	9.12           	0.798
MS.389         	9.102          	0.836
MS.390         	9.082          	0.997
MS.391         	9.065          	0.862
MS.392         	9.047          	1.015
MS.393         	9.03           	1.065
MS.394         	9.01           	0.751
MS.395         	8.992          	0.999
MS.396         	8.975          	0.781
MS.397         	8.957          	0.806
MS.398         	8.94           	0.806
MS.399         	8.92           	0.55
MS.400         	8.903          	0.675
MS.401         	8.885          	0.606
MS.402         	8.867          	0.697
MS.403         	8.85           	0.634
MS.404         	8.832          	0.711
MS.405         	8.815          	0.566
MS.406         	8.797          	0.594
MS.407         	8.78           	0.606
MS.408         	8.762          	0.784
MS.409         	8.745          	0.735
MS.410         	8.727          	0.552
MS.411         	8.71           	0.677
MS.412         	8.693          	0.689
MS.413         	8.675          	0.586
MS.414         	8.658          	0.443
MS.415         	8.64           	0.542
MS.416         	8.622          	0.532
MS.417         	8.605          	0.338
MS.418         	8.587          	0.598
MS.419         	8.573          	0.479
MS.420         	8.555          	0.51
MS.421         	8.537          	0.359
MS.422         	8.52           	0.475
MS.423         	8.502          	0.397
MS.424         	8.485          	0.302
MS.425         	8.47           	0.308
MS.426         	8.452          	0.363
MS.427         	8.435          	0.365
MS.428         	8.417          	0.332
MS.429         	8.403          	0.278
MS.430         	8.385          	0.316
MS.431         	8.367          	0.258
MS.432         	8.352          	0.336
MS.433         	8.335          	0.26
MS.434         	8.318          	0.252
MS.435         	8.302          	0.31
MS.436         	8.285          	0.25
MS.437         	8.267          	0.246
MS.438         	8.252          	0.173
MS.439         	8.235          	0.22
MS.440         	8.22           	0.167
MS.441         	8.202          	0.195
MS.442         	8.185          	0.195
MS.443         	8.17           	0.187
MS.444         	8.153          	0.163
MS.445         	8.137          	0.147
MS.446         	8.12           	0.107
MS.447         	8.105          	0.163
MS.448         	8.087          	0.175
MS.449         	8.073          	0.131
MS.450         	8.055          	0.068
MS.451         	8.04           	0.125
MS.452         	8.025          	0.183
MS.453         	8.007          	0.089
MS.454         	7.992          	0.089
MS.455         	7.975          	0.054
MS.456         	7.96           	0.183
MS.457         	7.945          	0.093
MS.458         	7.927          	0.091
MS.459         	7.912          	0.103
MS.460         	7.898          	0.075
MS.461         	7.88           	0.03
MS.462         	7.865          	0.087
MS.463         	7.85           	0.077
MS.464         	7.832          	0.04
MS.465         	7.817          	0.026
MS.466         	7.802          	0.075
MS.467         	7.787          	0.062
MS.468         	7.773          	0.079
MS.469         	7.755          	0.097
MS.470         	7.74           	0.042
MS.471         	7.725          	0.064
MS.472         	7.71           	0.016
MS.473         	7.695          	0.036
MS.474         	7.677          	0.066
MS.475         	7.662          	0.028
MS.476         	7.648          	0.077
MS.477         	7.632          	0.042
MS.478         	7.617          	0.044
MS.479         	7.602          	0.032
MS.480         	7.587          	0.04
MS.481         	7.572          	0.075
MS.482         	7.557          	0.028
MS.483         	7.543          	0.042
MS.484         	7.527          	0.014
MS.485         	7.512          	0.028
MS.486         	7.497          	0.022
MS.487         	7.482          	0.006
MS.488         	7.467          	0.03
MS.489         	7.452          	0.032
MS.490         	7.438          	0.006
MS.491         	7.422          	0.004
MS.492         	7.407          	0.018
MS.493         	7.392          	0.004
MS.494         	7.378          	0.068
MS.495         	7.362          	0.044
MS.496         	7.347          	0.022
MS.497         	7.332          	0.000
MS.498         	7.317          	0.000
MS.499         	7.305          	0.032
MS.500         	7.29           	0.000
MS.501         	7.275          	0.002
MS.502         	7.26           	0.024
MS.503         	7.245          	0.000
MS.504         	7.233          	0.01
MS.505         	7.217          	0.012
MS.506         	7.202          	0.000
MS.507         	7.188          	0.024
MS.508         	7.175          	0.000
MS.509         	7.16           	0.01
MS.510         	7.145          	0.024
MS.511         	7.13           	0.002
MS.512         	7.117          	0.000
MS.513         	7.102          	0.012
MS.514         	7.087          	0.002
MS.515         	7.075          	0.026
MS.516         	7.06           	0.000
MS.517         	7.045          	0.000
MS.518         	7.032          	0.000
MS.519         	7.017          	0.000
MS.520         	7.003          	0.000
MS.521         	6.99           	0.002
MS.522         	6.975          	0.002
MS.523         	6.962          	0.000
MS.524         	6.947          	0.000
MS.525         	6.935          	0.000
MS.526         	6.92           	0.000
MS.527         	6.907          	0.000
MS.528         	6.892          	0.000
MS.529         	6.878          	-0.002
MS.530         	6.865          	0.004
MS.531         	6.852          	0.026
MS.532         	6.837          	0.000
MS.533         	6.825          	0.002
MS.534         	6.81           	0.000
MS.535         	6.797          	-0.002
MS.536         	6.782          	0.000
MS.537         	6.77           	-0.002
MS.538         	6.755          	0.000
MS.539         	6.742          	0.000
MS.540         	6.73           	0.000
MS.541         	6.715          	0.000
MS.542         	6.702          	0.000
MS.543         	6.69           	0.002
MS.544         	6.675          	0.000
MS.545         	6.662          	0.000
MS.546         	6.65           	0.000
MS.547         	6.635          	0.000
DERIVED EXCITABILITY VARIABLES
Program = QTracP 3/4/2020
Threshold method = 6 (optimised for CAP, using data for present condition only)
SR method = 1 (using actual data values)
6.                 	0.000               	Peak response\(mV)
9.                 	31.8                	Temperature ( C)
17.                	53                  	Age (years)
18.                	2                   	Sex (M=1, F=2)

EXTRA VARIABLES

MScPeak(mV) = 6.92
MScS5(mA) = 8.52
MScS50(mA) = 10.73
MScS95(mA) = 14.05
MScNSteps = 1
MScSteps(%) = 2.6
MScStepMax(%) = 2.6
MScD50 = 57
MScSlope = 4.1
MSFPeakAmp(mV) = 6.92
MSFNUnits = 157
MSFMeanUnitAmp(uV) = 44.1
MSFHuntTime(m) = 3.77
MSFError(%) = 1.86
MSFNLarge = 52.59
MSFMedianAmp(%) = 0.545
MSFMedianAmp(mV) = 0.0377
MSFHalfAmpAmp(%) = 0.629
MSFHalfAmpAmp(mV) = 0.0435
MSFLargestAmp(%) = 2.21
MSFLargestAmp(mV) = 0.153
MSFMeanRS(%) = 2.01
MSFOpts = 10106121
MScDuration(min) = 5
MSFTraces = 524
MSFSizeLimit(uV) = 17.3
MSFLimitType = 1
MSFSmallestAmp(uV) = 18

EXTRA WAVEFORMS


!MScan Model
!157
	1	7.43	0.44	2
	2	7.85	0.67	2
	3	8.01	0.53	2
	4	8.11	0.58	2
	5	8.19	0.49	2
	6	8.24	0.46	2
	7	8.29	0.52	2
	8	8.37	0.7	2
	9	8.44	0.63	2
	10	8.5	0.79	2
	11	8.55	0.7	2
	12	8.63	1.92	2
	13	8.85	1.67	2
	14	8.91	0.39	2
	15	8.99	1.29	2
	16	9.14	2.21	2
	17	9.18	0.55	2
	18	9.22	0.85	2
	19	9.24	0.52	2
	20	9.26	0.36	2
	21	9.28	0.57	2
	22	9.3	0.64	2
	23	9.32	0.53	2
	24	9.34	0.5	2
	25	9.36	0.58	2
	26	9.37	0.5	2
	27	9.39	0.49	2
	28	9.41	0.44	2
	29	9.42	0.41	2
	30	9.43	0.41	2
	31	9.45	0.37	2
	32	9.46	0.41	2
	33	9.48	0.45	2
	34	9.49	0.45	2
	35	9.51	0.52	2
	36	9.52	0.5	2
	37	9.54	0.6	2
	38	9.56	0.55	2
	39	9.57	0.44	2
	40	9.6	0.61	2
	41	9.63	1.05	2
	42	9.67	1.03	2
	43	9.72	1.25	2
	44	9.76	0.74	2
	45	9.83	1.61	2
	46	9.89	1.43	2
	47	9.94	0.89	2
	48	9.99	1.15	2
	49	10.02	0.84	2
	50	10.05	0.54	2
	51	10.08	0.72	2
	52	10.11	0.63	2
	53	10.14	0.47	2
	54	10.17	0.64	2
	55	10.2	0.76	2
	56	10.24	1.02	2
	57	10.28	0.62	2
	58	10.31	0.46	2
	59	10.34	0.46	2
	60	10.38	1.07	2
	61	10.42	0.35	2
	62	10.44	0.55	2
	63	10.47	0.56	2
	64	10.49	0.57	2
	65	10.51	0.56	2
	66	10.56	0.7	2
	67	10.58	0.66	2
	68	10.62	0.91	2
	69	10.67	0.71	2
	70	10.74	1.39	2
	71	10.83	1.22	2
	72	10.88	0.65	2
	73	10.95	0.48	2
	74	10.98	0.46	2
	75	11.03	0.68	2
	76	11.05	0.54	2
	77	11.07	0.53	2
	78	11.09	0.65	2
	79	11.11	0.57	2
	80	11.13	0.57	2
	81	11.15	0.6	2
	82	11.18	0.58	2
	83	11.2	0.79	2
	84	11.22	0.63	2
	85	11.24	0.55	2
	86	11.26	0.49	2
	87	11.28	0.47	2
	88	11.3	0.52	2
	89	11.33	0.52	2
	90	11.35	0.45	2
	91	11.36	0.72	2
	92	11.37	0.45	2
	93	11.39	0.53	2
	94	11.41	0.6	2
	95	11.44	0.61	2
	96	11.46	0.55	2
	97	11.48	0.39	2
	98	11.51	0.47	2
	99	11.54	0.51	2
	100	11.56	0.5	2
	101	11.59	0.42	2
	102	11.64	0.81	2
	103	11.7	0.89	2
	104	11.79	1.21	2
	105	11.87	0.75	2
	106	11.94	0.96	2
	107	11.98	0.48	2
	108	12.05	0.55	2
	109	12.08	0.39	2
	110	12.11	0.5	2
	111	12.13	0.56	2
	112	12.15	0.42	2
	113	12.17	0.32	2
	114	12.19	0.36	2
	115	12.21	0.48	2
	116	12.24	0.57	2
	117	12.28	0.52	2
	118	12.31	0.48	2
	119	12.33	0.47	2
	120	12.36	0.43	2.4
	121	12.38	0.63	2
	122	12.4	0.46	2
	123	12.43	0.44	2
	124	12.47	0.8	2
	125	12.52	0.95	2
	126	12.57	0.65	2
	127	12.6	0.51	2
	128	12.64	0.32	2
	129	12.67	0.48	2
	130	12.76	0.61	2
	131	12.76	0.41	2
	132	12.9	0.99	2
	133	13.15	1.09	2
	134	13.23	0.43	2
	135	13.29	0.41	2
	136	13.34	0.41	2
	137	13.37	0.26	2
	138	13.43	0.38	2
	139	13.46	0.35	2
	140	13.49	0.34	2
	141	13.52	0.34	2
	142	13.56	0.29	2
	143	13.63	0.53	2
	144	13.67	0.33	2
	145	13.71	0.36	2
	146	13.76	0.38	2
	147	13.82	0.4	2
	148	13.88	0.44	2
	149	13.98	0.67	2
	150	14.07	0.5	2
	151	14.15	0.89	2
	152	14.22	0.61	2
	153	14.42	1.47	2.33
	154	14.88	0.63	2
	155	15.4	0.86	2
	156	16.35	0.53	2
	157	17.48	0.48	2

