File:              	C:\Qtrac\Data\Daniel M Sørensen\MScan multicentre study\Data from centres\Edmonton\MSCC00205C.QZD
Name:              	CA.EDM.NC.3.1
Protocol:          	MSCAN-R2
Date:              	5/2/20
Start time:        	10:04:53
Age:               	47
Sex:               	M
Temperature:       	33.1
S/R sites:         	CP Kn-TA
NC/disease:        	NC
Operator:          	KJ
Comments:
M-SCAN DATA (Repeat 2/2, 9.9-3.6m)
Scanpts: 31, 34, 649, 670
Stim. (mA)     	Amp. (mV)
MS.1           	28.5           	7.35
MS.2           	28.5           	7.35
MS.3           	28.5           	7.34
MS.4           	28.5           	7.321
MS.5           	28.5           	7.18
MS.6           	28.5           	7.303
MS.7           	28.5           	7.307
MS.8           	28.5           	7.319
MS.9           	28.5           	7.305
MS.10          	28.5           	7.309
MS.11          	28.5           	7.313
MS.12          	28.5           	7.307
MS.13          	28.5           	7.311
MS.14          	28.5           	7.313
MS.15          	28.5           	7.321
MS.16          	28.5           	7.326
MS.17          	28.5           	7.317
MS.18          	28.5           	7.321
MS.19          	28.5           	7.313
MS.20          	28.5           	7.319
MS.21          	28.5           	7.33
MS.22          	28.5           	7.323
MS.23          	28.5           	7.362
MS.24          	28.385         	7.309
MS.25          	28.33          	7.307
MS.26          	28.272         	7.332
MS.27          	28.217         	7.323
MS.28          	28.16          	7.315
MS.29          	28.105         	7.315
MS.30          	28.047         	7.33
MS.31          	27.993         	7.332
MS.32          	27.935         	7.311
MS.33          	27.88          	7.319
MS.34          	27.825         	7.321
MS.35          	27.767         	7.317
MS.36          	27.712         	7.315
MS.37          	27.657         	7.307
MS.38          	27.602         	7.309
MS.39          	27.547         	7.321
MS.40          	27.493         	7.328
MS.41          	27.438         	7.309
MS.42          	27.382         	7.307
MS.43          	27.327         	7.317
MS.44          	27.272         	7.311
MS.45          	27.217         	7.305
MS.46          	27.165         	7.33
MS.47          	27.11          	7.33
MS.48          	27.055         	7.332
MS.49          	27.002         	7.303
MS.50          	26.948         	7.307
MS.51          	26.895         	7.307
MS.52          	26.84          	7.317
MS.53          	26.787         	7.319
MS.54          	26.733         	7.315
MS.55          	26.68          	7.334
MS.56          	26.627         	7.33
MS.57          	26.573         	7.315
MS.58          	26.52          	7.311
MS.59          	26.467         	7.317
MS.60          	26.415         	7.283
MS.61          	26.362         	7.295
MS.62          	26.31          	7.309
MS.63          	26.257         	7.273
MS.64          	26.205         	7.281
MS.65          	26.153         	7.299
MS.66          	26.1           	7.311
MS.67          	26.047         	7.271
MS.68          	25.995         	7.275
MS.69          	25.942         	7.237
MS.70          	25.89          	7.247
MS.71          	25.84          	7.259
MS.72          	25.787         	7.237
MS.73          	25.737         	7.259
MS.74          	25.685         	7.255
MS.75          	25.632         	7.259
MS.76          	25.582         	7.227
MS.77          	25.532         	7.247
MS.78          	25.48          	7.239
MS.79          	25.43          	7.273
MS.80          	25.377         	7.237
MS.81          	25.327         	7.199
MS.82          	25.278         	7.277
MS.83          	25.227         	7.213
MS.84          	25.177         	7.182
MS.85          	25.125         	7.205
MS.86          	25.075         	7.199
MS.87          	25.025         	7.219
MS.88          	24.975         	7.205
MS.89          	24.925         	7.191
MS.90          	24.875         	7.17
MS.91          	24.827         	7.189
MS.92          	24.778         	7.152
MS.93          	24.727         	7.18
MS.94          	24.677         	7.158
MS.95          	24.627         	7.156
MS.96          	24.58          	7.193
MS.97          	24.53          	7.189
MS.98          	24.48          	7.15
MS.99          	24.432         	7.174
MS.100         	24.382         	7.108
MS.101         	24.335         	7.156
MS.102         	24.285         	7.142
MS.103         	24.237         	7.136
MS.104         	24.19          	7.164
MS.105         	24.14          	7.14
MS.106         	24.092         	7.096
MS.107         	24.045         	7.122
MS.108         	23.997         	7.114
MS.109         	23.948         	7.078
MS.110         	23.9           	7.114
MS.111         	23.852         	7.152
MS.112         	23.805         	7.122
MS.113         	23.757         	7.144
MS.114         	23.71          	7.122
MS.115         	23.663         	7.138
MS.116         	23.615         	7.098
MS.117         	23.567         	7.094
MS.118         	23.52          	7.05
MS.119         	23.475         	7.052
MS.120         	23.427         	7.09
MS.121         	23.38          	7.06
MS.122         	23.335         	6.975
MS.123         	23.288         	6.985
MS.124         	23.24          	7.009
MS.125         	23.195         	6.983
MS.126         	23.147         	7.007
MS.127         	23.102         	7.003
MS.128         	23.055         	6.993
MS.129         	23.01          	6.985
MS.130         	22.962         	6.973
MS.131         	22.917         	6.937
MS.132         	22.872         	6.907
MS.133         	22.825         	6.945
MS.134         	22.78          	6.878
MS.135         	22.735         	6.975
MS.136         	22.69          	6.858
MS.137         	22.645         	6.834
MS.138         	22.6           	6.872
MS.139         	22.555         	6.822
MS.140         	22.507         	6.872
MS.141         	22.465         	6.85
MS.142         	22.42          	6.816
MS.143         	22.375         	6.76
MS.144         	22.33          	6.719
MS.145         	22.285         	6.764
MS.146         	22.24          	6.758
MS.147         	22.195         	6.707
MS.148         	22.153         	6.707
MS.149         	22.108         	6.758
MS.150         	22.062         	6.735
MS.151         	22.02          	6.762
MS.152         	21.975         	6.677
MS.153         	21.93          	6.657
MS.154         	21.887         	6.693
MS.155         	21.842         	6.711
MS.156         	21.8           	6.643
MS.157         	21.757         	6.677
MS.158         	21.712         	6.623
MS.159         	21.67          	6.619
MS.160         	21.625         	6.586
MS.161         	21.583         	6.61
MS.162         	21.54          	6.617
MS.163         	21.497         	6.602
MS.164         	21.455         	6.598
MS.165         	21.41          	6.623
MS.166         	21.368         	6.604
MS.167         	21.325         	6.55
MS.168         	21.282         	6.584
MS.169         	21.24          	6.588
MS.170         	21.198         	6.572
MS.171         	21.155         	6.586
MS.172         	21.112         	6.623
MS.173         	21.07          	6.568
MS.174         	21.03          	6.578
MS.175         	20.987         	6.58
MS.176         	20.945         	6.602
MS.177         	20.903         	6.572
MS.178         	20.862         	6.576
MS.179         	20.82          	6.574
MS.180         	20.778         	6.552
MS.181         	20.737         	6.556
MS.182         	20.695         	6.492
MS.183         	20.655         	6.361
MS.184         	20.612         	6.546
MS.185         	20.573         	6.548
MS.186         	20.53          	6.459
MS.187         	20.49          	6.258
MS.188         	20.448         	6.262
MS.189         	20.407         	6.52
MS.190         	20.368         	6.276
MS.191         	20.325         	6.256
MS.192         	20.285         	6.284
MS.193         	20.245         	6.254
MS.194         	20.205         	6.48
MS.195         	20.165         	6.248
MS.196         	20.125         	6.482
MS.197         	20.083         	6.268
MS.198         	20.042         	6.165
MS.199         	20.002         	6.431
MS.200         	19.962         	6.373
MS.201         	19.922         	6.198
MS.202         	19.885         	6.173
MS.203         	19.845         	6.389
MS.204         	19.805         	6.159
MS.205         	19.765         	6.335
MS.206         	19.725         	6.135
MS.207         	19.685         	6.145
MS.208         	19.647         	6.042
MS.209         	19.608         	6.085
MS.210         	19.567         	6.049
MS.211         	19.53          	6.01
MS.212         	19.49          	6.055
MS.213         	19.45          	6.121
MS.214         	19.413         	6.091
MS.215         	19.372         	5.968
MS.216         	19.335         	6.01
MS.217         	19.295         	5.938
MS.218         	19.257         	5.952
MS.219         	19.22          	6.047
MS.220         	19.18          	6.071
MS.221         	19.142         	5.922
MS.222         	19.105         	5.908
MS.223         	19.065         	5.901
MS.224         	19.028         	5.869
MS.225         	18.99          	5.891
MS.226         	18.952         	5.93
MS.227         	18.915         	5.926
MS.228         	18.875         	5.815
MS.229         	18.837         	5.853
MS.230         	18.8           	5.819
MS.231         	18.762         	5.853
MS.232         	18.725         	5.829
MS.233         	18.688         	5.904
MS.234         	18.65          	5.839
MS.235         	18.615         	5.783
MS.236         	18.577         	5.754
MS.237         	18.54          	5.835
MS.238         	18.503         	5.75
MS.239         	18.465         	5.746
MS.240         	18.427         	5.775
MS.241         	18.392         	5.738
MS.242         	18.355         	5.706
MS.243         	18.317         	5.779
MS.244         	18.282         	5.742
MS.245         	18.245         	5.728
MS.246         	18.21          	5.72
MS.247         	18.172         	5.603
MS.248         	18.135         	5.728
MS.249         	18.1           	5.696
MS.250         	18.062         	5.736
MS.251         	18.028         	5.609
MS.252         	17.993         	5.636
MS.253         	17.955         	5.694
MS.254         	17.92          	5.599
MS.255         	17.885         	5.499
MS.256         	17.847         	5.613
MS.257         	17.812         	5.636
MS.258         	17.778         	5.607
MS.259         	17.743         	5.525
MS.260         	17.705         	5.533
MS.261         	17.67          	5.493
MS.262         	17.635         	5.263
MS.263         	17.6           	5.247
MS.264         	17.565         	5.539
MS.265         	17.53          	5.507
MS.266         	17.495         	5.289
MS.267         	17.46          	5.309
MS.268         	17.425         	5.352
MS.269         	17.39          	5.152
MS.270         	17.355         	5.217
MS.271         	17.32          	5.166
MS.272         	17.285         	5.297
MS.273         	17.253         	5.098
MS.274         	17.217         	5.197
MS.275         	17.182         	5.096
MS.276         	17.147         	5.193
MS.277         	17.115         	5.064
MS.278         	17.08          	5.082
MS.279         	17.045         	5.007
MS.280         	17.012         	5.08
MS.281         	16.977         	4.786
MS.282         	16.945         	4.945
MS.283         	16.91          	4.965
MS.284         	16.875         	4.888
MS.285         	16.842         	4.862
MS.286         	16.81          	4.872
MS.287         	16.775         	4.872
MS.288         	16.743         	4.782
MS.289         	16.708         	4.818
MS.290         	16.675         	4.586
MS.291         	16.642         	4.707
MS.292         	16.608         	4.755
MS.293         	16.575         	4.681
MS.294         	16.542         	4.604
MS.295         	16.51          	4.578
MS.296         	16.475         	4.681
MS.297         	16.442         	4.665
MS.298         	16.41          	4.566
MS.299         	16.378         	4.6
MS.300         	16.345         	4.55
MS.301         	16.312         	4.643
MS.302         	16.28          	4.51
MS.303         	16.247         	4.264
MS.304         	16.215         	4.421
MS.305         	16.182         	4.3
MS.306         	16.15          	4.336
MS.307         	16.118         	4.486
MS.308         	16.085         	4.276
MS.309         	16.052         	4.274
MS.310         	16.02          	4.242
MS.311         	15.99          	4.266
MS.312         	15.957         	4.22
MS.313         	15.925         	4.173
MS.314         	15.892         	4.171
MS.315         	15.862         	4.121
MS.316         	15.83          	4.129
MS.317         	15.797         	4.149
MS.318         	15.767         	4.212
MS.319         	15.735         	4.089
MS.320         	15.705         	3.946
MS.321         	15.672         	4
MS.322         	15.64          	3.851
MS.323         	15.61          	3.998
MS.324         	15.577         	3.938
MS.325         	15.547         	3.823
MS.326         	15.517         	3.954
MS.327         	15.485         	3.805
MS.328         	15.455         	3.803
MS.329         	15.422         	3.656
MS.330         	15.392         	3.825
MS.331         	15.362         	3.827
MS.332         	15.332         	3.801
MS.333         	15.3           	3.909
MS.334         	15.27          	3.817
MS.335         	15.24          	3.694
MS.336         	15.21          	3.712
MS.337         	15.18          	3.799
MS.338         	15.148         	3.688
MS.339         	15.117         	3.617
MS.340         	15.087         	3.648
MS.341         	15.057         	3.603
MS.342         	15.027         	3.545
MS.343         	14.997         	3.551
MS.344         	14.967         	3.628
MS.345         	14.938         	3.601
MS.346         	14.907         	3.537
MS.347         	14.877         	3.382
MS.348         	14.847         	3.547
MS.349         	14.82          	3.36
MS.350         	14.79          	3.414
MS.351         	14.76          	3.229
MS.352         	14.73          	3.307
MS.353         	14.7           	3.432
MS.354         	14.672         	3.392
MS.355         	14.642         	3.422
MS.356         	14.612         	3.17
MS.357         	14.582         	3.269
MS.358         	14.555         	3.104
MS.359         	14.525         	3.053
MS.360         	14.497         	2.993
MS.361         	14.467         	3.273
MS.362         	14.438         	3.039
MS.363         	14.41          	3.001
MS.364         	14.38          	3.015
MS.365         	14.352         	2.782
MS.366         	14.322         	2.987
MS.367         	14.295         	2.852
MS.368         	14.267         	2.914
MS.369         	14.237         	2.747
MS.370         	14.21          	2.82
MS.371         	14.18          	2.806
MS.372         	14.153         	2.643
MS.373         	14.125         	2.687
MS.374         	14.095         	2.6
MS.375         	14.068         	2.528
MS.376         	14.04          	2.794
MS.377         	14.012         	2.711
MS.378         	13.985         	2.582
MS.379         	13.955         	2.58
MS.380         	13.927         	2.592
MS.381         	13.9           	2.61
MS.382         	13.872         	2.475
MS.383         	13.845         	2.576
MS.384         	13.818         	2.427
MS.385         	13.79          	2.445
MS.386         	13.762         	2.427
MS.387         	13.735         	2.437
MS.388         	13.707         	2.397
MS.389         	13.68          	2.399
MS.390         	13.653         	2.393
MS.391         	13.625         	2.342
MS.392         	13.597         	2.425
MS.393         	13.57          	2.435
MS.394         	13.542         	2.419
MS.395         	13.517         	2.292
MS.396         	13.49          	2.324
MS.397         	13.462         	2.318
MS.398         	13.435         	2.286
MS.399         	13.407         	2.185
MS.400         	13.382         	2.222
MS.401         	13.355         	2.183
MS.402         	13.327         	2.185
MS.403         	13.302         	2.23
MS.404         	13.275         	2.165
MS.405         	13.25          	2.208
MS.406         	13.222         	2.191
MS.407         	13.195         	2.151
MS.408         	13.17          	2.099
MS.409         	13.142         	2.175
MS.410         	13.117         	2.034
MS.411         	13.09          	2.083
MS.412         	13.065         	1.942
MS.413         	13.037         	2.089
MS.414         	13.012         	1.978
MS.415         	12.987         	1.944
MS.416         	12.96          	2.034
MS.417         	12.935         	1.978
MS.418         	12.907         	1.905
MS.419         	12.882         	1.95
MS.420         	12.858         	1.885
MS.421         	12.832         	1.865
MS.422         	12.805         	1.805
MS.423         	12.78          	1.793
MS.424         	12.755         	1.867
MS.425         	12.73          	1.98
MS.426         	12.705         	1.839
MS.427         	12.677         	1.77
MS.428         	12.653         	1.736
MS.429         	12.627         	1.77
MS.430         	12.602         	1.843
MS.431         	12.577         	1.789
MS.432         	12.552         	1.831
MS.433         	12.528         	1.74
MS.434         	12.502         	1.684
MS.435         	12.477         	1.811
MS.436         	12.452         	1.593
MS.437         	12.427         	1.704
MS.438         	12.403         	1.799
MS.439         	12.377         	1.664
MS.440         	12.352         	1.698
MS.441         	12.327         	1.664
MS.442         	12.302         	1.74
MS.443         	12.28          	1.67
MS.444         	12.255         	1.688
MS.445         	12.23          	1.724
MS.446         	12.205         	1.654
MS.447         	12.182         	1.666
MS.448         	12.157         	1.635
MS.449         	12.132         	1.617
MS.450         	12.108         	1.684
MS.451         	12.085         	1.638
MS.452         	12.06          	1.65
MS.453         	12.035         	1.549
MS.454         	12.012         	1.646
MS.455         	11.988         	1.609
MS.456         	11.965         	1.712
MS.457         	11.94          	1.619
MS.458         	11.917         	1.591
MS.459         	11.892         	1.605
MS.460         	11.867         	1.688
MS.461         	11.845         	1.488
MS.462         	11.822         	1.553
MS.463         	11.797         	1.629
MS.464         	11.775         	1.515
MS.465         	11.75          	1.597
MS.466         	11.727         	1.593
MS.467         	11.702         	1.497
MS.468         	11.68          	1.563
MS.469         	11.657         	1.567
MS.470         	11.632         	1.503
MS.471         	11.61          	1.547
MS.472         	11.587         	1.394
MS.473         	11.565         	1.416
MS.474         	11.54          	1.426
MS.475         	11.517         	1.436
MS.476         	11.495         	1.406
MS.477         	11.472         	1.341
MS.478         	11.45          	1.378
MS.479         	11.425         	1.307
MS.480         	11.403         	1.426
MS.481         	11.38          	1.358
MS.482         	11.358         	1.281
MS.483         	11.335         	1.267
MS.484         	11.312         	1.241
MS.485         	11.29          	1.144
MS.486         	11.267         	1.215
MS.487         	11.245         	1.285
MS.488         	11.222         	1.126
MS.489         	11.2           	1.162
MS.490         	11.177         	1.154
MS.491         	11.155         	1.068
MS.492         	11.132         	1.172
MS.493         	11.11          	1.182
MS.494         	11.087         	1.094
MS.495         	11.068         	1.072
MS.496         	11.045         	0.969
MS.497         	11.023         	1.005
MS.498         	11             	0.961
MS.499         	10.977         	0.999
MS.500         	10.955         	1.041
MS.501         	10.935         	0.975
MS.502         	10.912         	0.939
MS.503         	10.89          	0.719
MS.504         	10.87          	0.854
MS.505         	10.847         	0.9
MS.506         	10.825         	0.878
MS.507         	10.805         	0.8
MS.508         	10.782         	0.906
MS.509         	10.76          	0.892
MS.510         	10.74          	0.784
MS.511         	10.717         	0.739
MS.512         	10.698         	0.733
MS.513         	10.675         	0.653
MS.514         	10.653         	0.771
MS.515         	10.632         	0.651
MS.516         	10.61          	0.661
MS.517         	10.59          	0.645
MS.518         	10.57          	0.502
MS.519         	10.547         	0.683
MS.520         	10.528         	0.56
MS.521         	10.505         	0.487
MS.522         	10.485         	0.546
MS.523         	10.462         	0.685
MS.524         	10.443         	0.57
MS.525         	10.422         	0.554
MS.526         	10.4           	0.534
MS.527         	10.38          	0.508
MS.528         	10.36          	0.614
MS.529         	10.34          	0.459
MS.530         	10.318         	0.495
MS.531         	10.297         	0.495
MS.532         	10.278         	0.508
MS.533         	10.257         	0.479
MS.534         	10.235         	0.417
MS.535         	10.215         	0.485
MS.536         	10.195         	0.487
MS.537         	10.175         	0.322
MS.538         	10.155         	0.365
MS.539         	10.135         	0.35
MS.540         	10.115         	0.417
MS.541         	10.092         	0.302
MS.542         	10.073         	0.286
MS.543         	10.052         	0.338
MS.544         	10.032         	0.336
MS.545         	10.012         	0.252
MS.546         	9.992          	0.367
MS.547         	9.972          	0.284
MS.548         	9.952          	0.242
MS.549         	9.932          	0.326
MS.550         	9.912          	0.304
MS.551         	9.895          	0.288
MS.552         	9.875          	0.292
MS.553         	9.855          	0.228
MS.554         	9.835          	0.312
MS.555         	9.815          	0.195
MS.556         	9.795          	0.224
MS.557         	9.775          	0.228
MS.558         	9.755          	0.298
MS.559         	9.738          	0.203
MS.560         	9.717          	0.222
MS.561         	9.698          	0.205
MS.562         	9.677          	0.177
MS.563         	9.66           	0.151
MS.564         	9.64           	0.195
MS.565         	9.62           	0.173
MS.566         	9.602          	0.077
MS.567         	9.582          	0.22
MS.568         	9.562          	0.079
MS.569         	9.545          	0.137
MS.570         	9.525          	0.127
MS.571         	9.505          	0.07
MS.572         	9.488          	0.07
MS.573         	9.467          	0.075
MS.574         	9.45           	0.064
MS.575         	9.43           	0.101
MS.576         	9.41           	0.091
MS.577         	9.392          	0.157
MS.578         	9.372          	0.099
MS.579         	9.355          	0.127
MS.580         	9.335          	0.066
MS.581         	9.318          	0.064
MS.582         	9.3            	0.058
MS.583         	9.28           	0.054
MS.584         	9.262          	0.048
MS.585         	9.242          	0.064
MS.586         	9.225          	0.056
MS.587         	9.207          	0.073
MS.588         	9.188          	0.048
MS.589         	9.17           	0.056
MS.590         	9.153          	0.056
MS.591         	9.132          	0.056
MS.592         	9.115          	0.056
MS.593         	9.097          	0.046
MS.594         	9.077          	0.05
MS.595         	9.06           	0.052
MS.596         	9.042          	0.048
MS.597         	9.025          	0.062
MS.598         	9.005          	0.044
MS.599         	8.988          	0.028
MS.600         	8.97           	0.048
MS.601         	8.952          	0.048
MS.602         	8.935          	0.044
MS.603         	8.917          	0.052
MS.604         	8.898          	0.054
MS.605         	8.88           	0.05
MS.606         	8.863          	0.05
MS.607         	8.845          	0.05
MS.608         	8.827          	0.054
MS.609         	8.81           	0.04
MS.610         	8.792          	0.05
MS.611         	8.775          	0.048
MS.612         	8.757          	0.044
MS.613         	8.74           	0.04
MS.614         	8.722          	0.042
MS.615         	8.705          	0.048
MS.616         	8.688          	0.044
MS.617         	8.67           	0.044
MS.618         	8.653          	0.044
MS.619         	8.635          	0.034
MS.620         	8.617          	0.036
MS.621         	8.6            	0.034
MS.622         	8.585          	0.04
MS.623         	8.568          	0.038
MS.624         	8.55           	0.066
MS.625         	8.533          	0.032
MS.626         	8.515          	0.036
MS.627         	8.497          	0.036
MS.628         	8.483          	0.032
MS.629         	8.465          	0.03
MS.630         	8.448          	0.044
MS.631         	8.43           	0.054
MS.632         	8.415          	0.032
MS.633         	8.398          	0.034
MS.634         	8.38           	0.032
MS.635         	8.363          	0.036
MS.636         	8.347          	0.032
MS.637         	8.33           	0.036
MS.638         	8.312          	0.036
MS.639         	8.297          	0.032
MS.640         	8.28           	0.034
MS.641         	8.265          	0.034
MS.642         	8.247          	0.036
MS.643         	8.23           	0.036
MS.644         	8.215          	0.032
MS.645         	8.198          	0.036
MS.646         	8.182          	0.038
MS.647         	8.165          	0.038
MS.648         	8.15           	0.032
MS.649         	8.132          	0.036
MS.650         	8.117          	0.032
MS.651         	8.1            	0.032
MS.652         	8.085          	0.032
MS.653         	8.068          	0.036
MS.654         	8.052          	0.036
MS.655         	8.035          	0.036
MS.656         	8.02           	0.034
MS.657         	8.002          	0.036
MS.658         	7.987          	0.03
MS.659         	7.972          	0.028
MS.660         	7.955          	0.032
MS.661         	7.94           	0.034
MS.662         	7.925          	0.034
MS.663         	7.907          	0.034
MS.664         	7.892          	0.032
MS.665         	7.878          	0.036
MS.666         	7.86           	0.038
MS.667         	7.845          	0.032
MS.668         	7.83           	0.032
MS.669         	7.815          	0.034
MS.670         	7.797          	0.03
DERIVED EXCITABILITY VARIABLES
Program = QTracP 3/4/2020
Threshold method = 6 (optimised for CAP, using data for present condition only)
SR method = 1 (using actual data values)
6.                 	0.000               	Peak response\(mV)
9.                 	33.1                	Temperature ( C)
17.                	47                  	Age (years)
18.                	1                   	Sex (M=1, F=2)

EXTRA VARIABLES

MScPeak(mV) = 7.28
MScS5(mA) = 10.1
MScS50(mA) = 15.1
MScS95(mA) = 22.81
MScNSteps = 0
MScSteps(%) = 0.0
MScStepMax(%) = 0.0
MScD50 = 80
MScSlope = 3.06
MSFPeakAmp(mV) = 7.29
MSFNUnits = 162
MSFMeanUnitAmp(uV) = 45
MSFHuntTime(m) = 3.84
MSFError(%) = 1.67
MSFNLarge = 50.8
MSFMedianAmp(%) = 0.529
MSFMedianAmp(mV) = 0.0385
MSFHalfAmpAmp(%) = 0.67
MSFHalfAmpAmp(mV) = 0.0489
MSFLargestAmp(%) = 2.41
MSFLargestAmp(mV) = 0.176
MSFMeanRS(%) = 2
MSFOpts = 10106121
MSFTraces = 640
MSFSizeLimit(uV) = 18.2
MSFLimitType = 1
MSFSmallestAmp(uV) = 18.8

EXTRA WAVEFORMS


!MScan Model
!162
	1	9.22	0.35	2
	2	9.34	0.3	2
	3	9.56	0.67	2
	4	9.64	0.51	2
	5	9.7	0.49	2
	6	9.77	0.44	2
	7	9.89	0.59	2
	8	10.03	0.59	2
	9	10.11	0.46	2
	10	10.16	0.51	2
	11	10.22	0.63	2
	12	10.28	0.61	2
	13	10.35	0.58	2
	14	10.5	0.95	2
	15	10.6	0.76	2
	16	10.63	0.35	2
	17	10.65	0.43	2
	18	10.68	0.4	2
	19	10.71	0.36	2
	20	10.74	0.38	2
	21	10.78	0.53	2
	22	10.87	0.95	2
	23	10.94	0.59	2
	24	10.98	0.59	2
	25	11.03	0.85	2
	26	11.08	0.57	2
	27	11.16	0.7	2
	28	11.21	0.47	2
	29	11.26	0.54	2
	30	11.28	0.38	2
	31	11.31	0.37	2
	32	11.36	0.34	2
	33	11.38	0.3	2
	34	11.45	0.85	2
	35	11.51	0.67	2
	36	11.56	1.98	2
	37	11.56	0.45	2
	38	11.59	0.27	2
	39	11.62	0.38	2
	40	12.2	0.42	2
	41	12.41	0.59	2
	42	12.53	0.59	2
	43	12.75	1.14	2
	44	12.86	0.98	2
	45	12.92	0.43	2
	46	12.97	0.47	2
	47	13.02	0.36	2
	48	13.05	0.47	2
	49	13.09	0.42	2
	50	13.13	0.52	2
	51	13.18	0.41	2
	52	13.23	0.34	2
	53	13.28	0.31	2
	54	13.32	0.41	2
	55	13.36	0.27	2
	56	13.41	0.35	2
	57	13.47	0.48	2
	58	13.49	0.28	2
	59	13.52	0.28	2
	60	13.63	0.84	2
	61	13.69	0.29	2
	62	13.76	0.44	2
	63	13.81	0.63	2
	64	13.88	0.56	2
	65	13.98	1.19	2
	66	14.1	1.01	2
	67	14.18	0.86	2
	68	14.24	0.71	2
	69	14.3	1.18	2
	70	14.35	0.83	2
	71	14.41	0.77	2
	72	14.46	0.84	2
	73	14.57	1.75	2
	74	14.64	0.61	2
	75	14.68	1.48	2
	76	14.77	1.03	2
	77	14.77	0.26	2
	78	14.81	0.46	2
	79	14.9	0.69	2
	80	15.01	0.94	2
	81	15.07	0.55	2
	82	15.1	0.28	2
	83	15.14	0.37	2
	84	15.18	0.4	2
	85	15.21	0.37	2
	86	15.35	0.78	2
	87	15.46	0.53	2
	88	15.56	0.74	2
	89	15.6	0.62	2
	90	15.65	0.77	2
	91	15.69	0.48	2
	92	15.73	0.42	2
	93	15.76	0.39	2
	94	15.8	0.4	2
	95	15.83	0.34	2
	96	15.87	0.34	2
	97	15.91	0.35	2
	98	15.94	0.32	2
	99	15.98	0.37	2
	100	16.05	0.63	2
	101	16.11	0.77	2
	102	16.18	0.82	2
	103	16.22	0.47	2
	104	16.27	0.33	2
	105	16.31	0.51	2
	106	16.54	2.14	2
	107	16.59	0.45	2
	108	16.63	0.47	2
	109	16.69	0.62	2
	110	16.76	0.52	2
	111	16.82	0.66	2
	112	16.88	0.6	2
	113	16.92	0.58	2
	114	16.97	0.56	2
	115	17.03	0.67	2
	116	17.1	0.52	2
	117	17.16	0.63	2
	118	17.21	0.62	2
	119	17.24	0.85	2
	120	17.33	0.92	2
	121	17.45	0.88	2
	122	17.59	1.42	2
	123	17.72	1.38	2
	124	17.82	1.09	2
	125	18.08	0.62	2
	126	18.27	0.79	2
	127	18.52	0.78	2
	128	18.61	0.35	2
	129	18.72	0.36	2
	130	18.83	0.52	2
	131	19.08	0.81	2
	132	19.41	1.39	2
	133	19.52	0.57	2
	134	19.6	0.53	2
	135	19.68	0.27	2
	136	19.76	0.72	2
	137	19.92	0.55	1.6
	138	20.24	0.74	2
	139	20.42	2.41	2
	140	20.43	0.59	2
	141	20.55	0.89	2
	142	21.36	0.52	2
	143	21.59	0.27	2
	144	21.75	0.46	2
	145	21.91	0.58	2
	146	22.07	0.37	2
	147	22.19	0.44	2
	148	22.41	0.67	2
	149	22.58	0.75	2
	150	22.67	0.37	2
	151	22.78	0.37	2
	152	22.89	0.44	2
	153	22.97	0.41	2
	154	23.22	0.44	2
	155	23.35	0.41	2
	156	23.46	0.33	2
	157	23.56	0.36	2
	158	24.27	0.83	2
	159	24.61	0.32	2
	160	25.2	0.71	2
	161	26.08	0.8	2
	162	26.33	0.33	2

