File:              	C:\Qtrac\Data\Daniel M Sørensen\MScan multicentre study\Data from centres\Edmonton\MSCC00201A.QZD
Name:              	CA.EDM.NC.2.1
Protocol:          	MSCAN-R2
Date:              	1/2/20
Start time:        	10:10:27
Age:               	56
Sex:               	F
Temperature:       	34.5
S/R sites:         	Median Wr-APB
NC/disease:        	NC
Operator:          	KJ
Comments:
M-SCAN DATA (6.9-2.1m)
Scanpts: 171, 176, 502, 523
Stim. (mA)     	Amp. (mV)
MS.1           	15.5           	8.163
MS.2           	15.5           	8.151
MS.3           	15.5           	8.171
MS.4           	15.5           	8.139
MS.5           	15.5           	8.167
MS.6           	15.5           	8.133
MS.7           	15.5           	8.131
MS.8           	15.5           	8.137
MS.9           	15.5           	8.145
MS.10          	15.5           	8.153
MS.11          	15.5           	8.163
MS.12          	15.5           	8.133
MS.13          	15.5           	8.127
MS.14          	15.5           	8.147
MS.15          	15.5           	8.18
MS.16          	15.5           	8.145
MS.17          	15.5           	8.153
MS.18          	15.5           	8.137
MS.19          	15.5           	8.145
MS.20          	15.5           	8.115
MS.21          	15.5           	8.123
MS.22          	15.5           	8.105
MS.23          	15.438         	8.123
MS.24          	15.407         	8.107
MS.25          	15.377         	8.117
MS.26          	15.345         	8.109
MS.27          	15.315         	8.155
MS.28          	15.285         	8.129
MS.29          	15.255         	8.153
MS.30          	15.222         	8.145
MS.31          	15.193         	8.161
MS.32          	15.162         	8.161
MS.33          	15.132         	8.19
MS.34          	15.102         	8.169
MS.35          	15.072         	8.184
MS.36          	15.042         	8.163
MS.37          	15.012         	8.165
MS.38          	14.983         	8.182
MS.39          	14.952         	8.149
MS.40          	14.922         	8.169
MS.41          	14.892         	8.167
MS.42          	14.862         	8.173
MS.43          	14.832         	8.167
MS.44          	14.802         	8.151
MS.45          	14.773         	8.171
MS.46          	14.745         	8.149
MS.47          	14.715         	8.139
MS.48          	14.685         	8.159
MS.49          	14.655         	8.159
MS.50          	14.627         	8.155
MS.51          	14.597         	8.155
MS.52          	14.568         	8.141
MS.53          	14.54          	8.135
MS.54          	14.51          	8.155
MS.55          	14.48          	8.147
MS.56          	14.452         	8.155
MS.57          	14.422         	8.167
MS.58          	14.395         	8.159
MS.59          	14.365         	8.173
MS.60          	14.337         	8.171
MS.61          	14.307         	8.171
MS.62          	14.28          	8.175
MS.63          	14.25          	8.167
MS.64          	14.222         	8.169
MS.65          	14.195         	8.159
MS.66          	14.165         	8.155
MS.67          	14.137         	8.169
MS.68          	14.11          	8.153
MS.69          	14.08          	8.186
MS.70          	14.052         	8.171
MS.71          	14.025         	8.169
MS.72          	13.997         	8.151
MS.73          	13.97          	8.147
MS.74          	13.94          	8.169
MS.75          	13.912         	8.163
MS.76          	13.885         	8.159
MS.77          	13.858         	8.167
MS.78          	13.83          	8.173
MS.79          	13.802         	8.155
MS.80          	13.775         	8.153
MS.81          	13.747         	8.155
MS.82          	13.72          	8.171
MS.83          	13.693         	8.186
MS.84          	13.665         	8.167
MS.85          	13.637         	8.163
MS.86          	13.61          	8.167
MS.87          	13.582         	8.173
MS.88          	13.555         	8.169
MS.89          	13.53          	8.177
MS.90          	13.502         	8.192
MS.91          	13.475         	8.163
MS.92          	13.447         	8.155
MS.93          	13.42          	8.133
MS.94          	13.395         	8.159
MS.95          	13.367         	8.165
MS.96          	13.34          	8.167
MS.97          	13.315         	8.161
MS.98          	13.287         	8.177
MS.99          	13.26          	8.169
MS.100         	13.235         	8.169
MS.101         	13.207         	8.163
MS.102         	13.182         	8.175
MS.103         	13.155         	8.153
MS.104         	13.13          	8.155
MS.105         	13.102         	8.182
MS.106         	13.077         	8.171
MS.107         	13.05          	8.182
MS.108         	13.025         	8.175
MS.109         	12.997         	8.2
MS.110         	12.972         	8.196
MS.111         	12.947         	8.192
MS.112         	12.92          	8.177
MS.113         	12.895         	8.21
MS.114         	12.87          	8.2
MS.115         	12.842         	8.21
MS.116         	12.818         	8.226
MS.117         	12.792         	8.198
MS.118         	12.767         	8.188
MS.119         	12.74          	8.19
MS.120         	12.715         	8.182
MS.121         	12.69          	8.184
MS.122         	12.665         	8.192
MS.123         	12.64          	8.198
MS.124         	12.615         	8.18
MS.125         	12.59          	8.2
MS.126         	12.565         	8.194
MS.127         	12.54          	8.196
MS.128         	12.515         	8.169
MS.129         	12.49          	8.171
MS.130         	12.465         	8.18
MS.131         	12.44          	8.19
MS.132         	12.415         	8.196
MS.133         	12.39          	8.194
MS.134         	12.365         	8.186
MS.135         	12.34          	8.184
MS.136         	12.315         	8.165
MS.137         	12.29          	8.169
MS.138         	12.265         	8.175
MS.139         	12.242         	8.163
MS.140         	12.217         	8.167
MS.141         	12.193         	8.161
MS.142         	12.167         	8.171
MS.143         	12.145         	8.161
MS.144         	12.12          	8.173
MS.145         	12.095         	8.163
MS.146         	12.072         	8.163
MS.147         	12.047         	8.143
MS.148         	12.023         	8.167
MS.149         	12             	8.151
MS.150         	11.975         	8.163
MS.151         	11.95          	8.147
MS.152         	11.927         	8.149
MS.153         	11.903         	8.157
MS.154         	11.88          	8.143
MS.155         	11.855         	8.157
MS.156         	11.832         	8.147
MS.157         	11.807         	8.155
MS.158         	11.785         	8.131
MS.159         	11.762         	8.139
MS.160         	11.738         	8.145
MS.161         	11.715         	8.137
MS.162         	11.69          	8.129
MS.163         	11.667         	8.143
MS.164         	11.645         	8.145
MS.165         	11.622         	8.137
MS.166         	11.597         	8.139
MS.167         	11.575         	8.135
MS.168         	11.552         	8.157
MS.169         	11.528         	8.173
MS.170         	11.505         	8.192
MS.171         	11.483         	8.208
MS.172         	11.46          	8.204
MS.173         	11.438         	8.192
MS.174         	11.415         	8.198
MS.175         	11.39          	8.188
MS.176         	11.367         	8.202
MS.177         	11.345         	8.157
MS.178         	11.322         	8.196
MS.179         	11.3           	8.2
MS.180         	11.278         	8.194
MS.181         	11.255         	8.145
MS.182         	11.233         	8.161
MS.183         	11.21          	8.175
MS.184         	11.188         	8.175
MS.185         	11.165         	8.159
MS.186         	11.142         	8.165
MS.187         	11.12          	8.137
MS.188         	11.1           	7.855
MS.189         	11.077         	8.131
MS.190         	11.055         	8.159
MS.191         	11.032         	8
MS.192         	11.01          	8.159
MS.193         	10.988         	8.145
MS.194         	10.967         	8.079
MS.195         	10.945         	8.143
MS.196         	10.922         	8.157
MS.197         	10.9           	8.125
MS.198         	10.88          	8.057
MS.199         	10.858         	7.896
MS.200         	10.835         	7.823
MS.201         	10.815         	8.032
MS.202         	10.792         	7.986
MS.203         	10.77          	7.785
MS.204         	10.75          	7.537
MS.205         	10.727         	8.026
MS.206         	10.707         	7.585
MS.207         	10.685         	7.805
MS.208         	10.662         	7.491
MS.209         	10.642         	7.787
MS.210         	10.62          	7.694
MS.211         	10.6           	7.263
MS.212         	10.577         	7.281
MS.213         	10.557         	7.549
MS.214         	10.537         	7.283
MS.215         	10.515         	7.233
MS.216         	10.495         	7.237
MS.217         	10.472         	7.323
MS.218         	10.452         	7.207
MS.219         	10.432         	7.289
MS.220         	10.41          	7.559
MS.221         	10.39          	7.245
MS.222         	10.37          	7.098
MS.223         	10.347         	7.156
MS.224         	10.327         	7.189
MS.225         	10.307         	7.025
MS.226         	10.287         	7.158
MS.227         	10.265         	7.011
MS.228         	10.245         	6.969
MS.229         	10.225         	7.029
MS.230         	10.205         	7.249
MS.231         	10.185         	7.062
MS.232         	10.165         	6.961
MS.233         	10.142         	6.894
MS.234         	10.122         	6.896
MS.235         	10.102         	6.848
MS.236         	10.082         	6.894
MS.237         	10.062         	6.878
MS.238         	10.042         	6.874
MS.239         	10.023         	6.838
MS.240         	10.002         	6.876
MS.241         	9.983          	6.83
MS.242         	9.962          	6.8
MS.243         	9.943          	6.81
MS.244         	9.922          	6.77
MS.245         	9.903          	6.764
MS.246         	9.882          	6.739
MS.247         	9.863          	6.814
MS.248         	9.842          	6.703
MS.249         	9.825          	6.459
MS.250         	9.805          	6.556
MS.251         	9.785          	6.425
MS.252         	9.765          	6.59
MS.253         	9.745          	6.594
MS.254         	9.727          	6.445
MS.255         	9.707          	6.627
MS.256         	9.688          	6.592
MS.257         	9.667          	6.637
MS.258         	9.65           	6.554
MS.259         	9.63           	6.425
MS.260         	9.61           	6.399
MS.261         	9.59           	6.435
MS.262         	9.573          	6.459
MS.263         	9.552          	6.433
MS.264         	9.532          	6.427
MS.265         	9.515          	6.397
MS.266         	9.495          	6.296
MS.267         	9.477          	6.536
MS.268         	9.457          	6.439
MS.269         	9.44           	6.061
MS.270         	9.42           	6.23
MS.271         	9.4            	6.026
MS.272         	9.382          	6.234
MS.273         	9.363          	6.075
MS.274         	9.345          	6.085
MS.275         	9.327          	6.081
MS.276         	9.307          	5.887
MS.277         	9.29           	5.726
MS.278         	9.27           	5.871
MS.279         	9.252          	5.936
MS.280         	9.233          	5.67
MS.281         	9.215          	5.68
MS.282         	9.198          	5.626
MS.283         	9.177          	5.567
MS.284         	9.16           	5.464
MS.285         	9.142          	5.408
MS.286         	9.122          	5.394
MS.287         	9.105          	5.38
MS.288         	9.087          	5.13
MS.289         	9.07           	5.203
MS.290         	9.05           	5.195
MS.291         	9.033          	5.227
MS.292         	9.015          	5.303
MS.293         	8.997          	5.068
MS.294         	8.977          	5.144
MS.295         	8.96           	4.917
MS.296         	8.943          	5.136
MS.297         	8.925          	5.12
MS.298         	8.908          	4.919
MS.299         	8.89           	5.072
MS.300         	8.872          	4.776
MS.301         	8.852          	4.62
MS.302         	8.835          	4.52
MS.303         	8.818          	4.701
MS.304         	8.8            	4.385
MS.305         	8.783          	4.592
MS.306         	8.765          	4.467
MS.307         	8.747          	4.433
MS.308         	8.73           	4.306
MS.309         	8.712          	4.183
MS.310         	8.695          	4.538
MS.311         	8.677          	4.27
MS.312         	8.66           	4.018
MS.313         	8.642          	3.988
MS.314         	8.627          	4.157
MS.315         	8.61           	3.934
MS.316         	8.592          	3.801
MS.317         	8.575          	3.916
MS.318         	8.557          	3.756
MS.319         	8.54           	3.73
MS.320         	8.523          	3.632
MS.321         	8.507          	3.489
MS.322         	8.49           	3.519
MS.323         	8.472          	3.517
MS.324         	8.455          	3.307
MS.325         	8.44           	3.434
MS.326         	8.422          	3.241
MS.327         	8.405          	3.172
MS.328         	8.387          	3.066
MS.329         	8.372          	2.788
MS.330         	8.355          	3.086
MS.331         	8.337          	2.951
MS.332         	8.323          	2.635
MS.333         	8.305          	2.56
MS.334         	8.287          	2.935
MS.335         	8.273          	2.564
MS.336         	8.255          	2.765
MS.337         	8.238          	2.844
MS.338         	8.222          	2.403
MS.339         	8.205          	2.34
MS.340         	8.19           	2.411
MS.341         	8.172          	2.425
MS.342         	8.158          	2.361
MS.343         	8.14           	2.359
MS.344         	8.125          	2.206
MS.345         	8.108          	2.238
MS.346         	8.092          	1.948
MS.347         	8.075          	1.74
MS.348         	8.06           	1.96
MS.349         	8.042          	1.988
MS.350         	8.028          	1.555
MS.351         	8.01           	1.833
MS.352         	7.995          	1.571
MS.353         	7.98           	1.674
MS.354         	7.962          	1.644
MS.355         	7.947          	1.738
MS.356         	7.932          	1.553
MS.357         	7.915          	1.601
MS.358         	7.9            	1.505
MS.359         	7.885          	1.319
MS.360         	7.867          	1.603
MS.361         	7.852          	1.674
MS.362         	7.837          	1.293
MS.363         	7.82           	1.227
MS.364         	7.805          	1.327
MS.365         	7.79           	1.154
MS.366         	7.775          	1.072
MS.367         	7.76           	1.18
MS.368         	7.742          	1.114
MS.369         	7.727          	1.12
MS.370         	7.712          	1.16
MS.371         	7.697          	0.959
MS.372         	7.682          	1.146
MS.373         	7.668          	1.037
MS.374         	7.65           	1.202
MS.375         	7.635          	1.061
MS.376         	7.62           	1.003
MS.377         	7.605          	0.993
MS.378         	7.59           	0.931
MS.379         	7.575          	1.003
MS.380         	7.56           	1.076
MS.381         	7.545          	0.945
MS.382         	7.53           	0.965
MS.383         	7.515          	0.896
MS.384         	7.5            	0.862
MS.385         	7.485          	0.955
MS.386         	7.47           	0.848
MS.387         	7.455          	0.92
MS.388         	7.44           	0.745
MS.389         	7.425          	0.816
MS.390         	7.41           	0.786
MS.391         	7.395          	0.767
MS.392         	7.38           	0.792
MS.393         	7.365          	0.743
MS.394         	7.35           	0.749
MS.395         	7.337          	0.643
MS.396         	7.322          	0.693
MS.397         	7.307          	0.743
MS.398         	7.293          	0.61
MS.399         	7.277          	0.705
MS.400         	7.262          	0.685
MS.401         	7.25           	0.667
MS.402         	7.235          	0.679
MS.403         	7.22           	0.63
MS.404         	7.205          	0.546
MS.405         	7.19           	0.711
MS.406         	7.177          	0.558
MS.407         	7.162          	0.548
MS.408         	7.148          	0.441
MS.409         	7.132          	0.554
MS.410         	7.12           	0.538
MS.411         	7.105          	0.266
MS.412         	7.09           	0.427
MS.413         	7.077          	0.463
MS.414         	7.062          	0.27
MS.415         	7.047          	0.367
MS.416         	7.035          	0.28
MS.417         	7.02           	0.365
MS.418         	7.007          	0.354
MS.419         	6.992          	0.272
MS.420         	6.977          	0.409
MS.421         	6.965          	0.354
MS.422         	6.95           	0.35
MS.423         	6.938          	0.254
MS.424         	6.922          	0.286
MS.425         	6.91           	0.282
MS.426         	6.895          	0.274
MS.427         	6.882          	0.171
MS.428         	6.867          	0.244
MS.429         	6.855          	0.135
MS.430         	6.84           	0.161
MS.431         	6.827          	0.143
MS.432         	6.812          	0.151
MS.433         	6.8            	0.109
MS.434         	6.785          	0.119
MS.435         	6.773          	0.097
MS.436         	6.757          	0.097
MS.437         	6.745          	0.083
MS.438         	6.733          	0.141
MS.439         	6.717          	0.103
MS.440         	6.705          	0.034
MS.441         	6.692          	0.034
MS.442         	6.677          	0.089
MS.443         	6.665          	0.036
MS.444         	6.652          	0.036
MS.445         	6.637          	0.036
MS.446         	6.625          	0.036
MS.447         	6.612          	0.038
MS.448         	6.597          	0.034
MS.449         	6.585          	0.034
MS.450         	6.572          	0.036
MS.451         	6.56           	0.038
MS.452         	6.545          	0.034
MS.453         	6.532          	0.036
MS.454         	6.52           	0.06
MS.455         	6.507          	0.012
MS.456         	6.492          	0.036
MS.457         	6.48           	0.014
MS.458         	6.467          	0.03
MS.459         	6.455          	0.014
MS.460         	6.442          	0.014
MS.461         	6.43           	0.012
MS.462         	6.418          	0.012
MS.463         	6.402          	0.036
MS.464         	6.39           	0.036
MS.465         	6.378          	0.014
MS.466         	6.365          	-0.002
MS.467         	6.352          	0.034
MS.468         	6.34           	0.014
MS.469         	6.327          	0.014
MS.470         	6.315          	0.014
MS.471         	6.302          	0.012
MS.472         	6.29           	0.014
MS.473         	6.277          	0.012
MS.474         	6.265          	0.014
MS.475         	6.253          	0.014
MS.476         	6.24           	0.016
MS.477         	6.227          	0.012
MS.478         	6.215          	0.014
MS.479         	6.202          	0.016
MS.480         	6.19           	0.012
MS.481         	6.177          	0.012
MS.482         	6.165          	0.012
MS.483         	6.152          	0.014
MS.484         	6.14           	0.016
MS.485         	6.128          	0.002
MS.486         	6.115          	0.000
MS.487         	6.102          	0.000
MS.488         	6.09           	0.01
MS.489         	6.08           	0.014
MS.490         	6.067          	0.014
MS.491         	6.055          	-0.002
MS.492         	6.043          	0.014
MS.493         	6.03           	0.000
MS.494         	6.017          	0.000
MS.495         	6.007          	-0.002
MS.496         	5.995          	0.000
MS.497         	5.983          	0.000
MS.498         	5.97           	0.000
MS.499         	5.957          	0.000
MS.500         	5.947          	0.000
MS.501         	5.935          	0.000
MS.502         	5.922          	0.000
MS.503         	5.91           	0.000
MS.504         	5.9            	0.002
MS.505         	5.887          	0.000
MS.506         	5.875          	0.002
MS.507         	5.865          	0.000
MS.508         	5.852          	0.000
MS.509         	5.84           	0.002
MS.510         	5.83           	-0.002
MS.511         	5.817          	0.004
MS.512         	5.805          	0.000
MS.513         	5.795          	0.014
MS.514         	5.782          	0.002
MS.515         	5.77           	0.000
MS.516         	5.76           	-0.002
MS.517         	5.747          	0.000
MS.518         	5.737          	0.002
MS.519         	5.725          	0.004
MS.520         	5.713          	0.000
MS.521         	5.702          	0.000
MS.522         	5.69           	0.000
MS.523         	5.68           	0.004
DERIVED EXCITABILITY VARIABLES
Program = QTracP 3/4/2020
Threshold method = 6 (optimised for CAP, using data for present condition only)
SR method = 1 (using actual data values)
6.                 	0.000               	Peak response\(mV)
9.                 	34.5                	Temperature ( C)
17.                	56                  	Age (years)
18.                	2                   	Sex (M=1, F=2)

EXTRA VARIABLES

MScPeak(mV) = 8.14
MScS5(mA) = 7.05
MScS50(mA) = 8.64
MScS95(mA) = 10.7
MScNSteps = 3
MScSteps(%) = 6.9
MScStepMax(%) = 2.7
MScD50 = 39
MScSlope = 6.59
MSFPeakAmp(mV) = 8.2
MSFNUnits = 156
MSFMeanUnitAmp(uV) = 52.5
MSFHuntTime(m) = 2.39
MSFError(%) = 5.67
MSFNLarge = 43.35
MSFMedianAmp(%) = 0.553
MSFMedianAmp(mV) = 0.0454
MSFHalfAmpAmp(%) = 0.694
MSFHalfAmpAmp(mV) = 0.0569
MSFLargestAmp(%) = 2.83
MSFLargestAmp(mV) = 0.232
MSFMeanRS(%) = 2
MSFOpts = 10106121
MScDuration(min) = 4.8
MSFTraces = 353
MSFSizeLimit(uV) = 20.5
MSFLimitType = 1
MSFSmallestAmp(uV) = 21.1

EXTRA WAVEFORMS


!MScan Model
!156
	1	6.56	0.62	2
	2	6.72	0.56	2
	3	6.78	0.43	2
	4	6.81	0.36	2
	5	6.84	0.26	2
	6	6.86	0.27	2
	7	6.88	0.49	2
	8	6.94	0.74	2
	9	7.05	0.94	2
	10	7.08	0.47	2
	11	7.11	0.62	2
	12	7.14	0.55	2
	13	7.17	0.54	2
	14	7.22	0.73	2
	15	7.26	0.55	2
	16	7.31	0.59	2
	17	7.37	0.63	2
	18	7.39	0.29	2
	19	7.41	0.28	2
	20	7.44	0.5	2
	21	7.46	0.29	2
	22	7.49	0.41	2
	23	7.52	0.33	2
	24	7.59	0.95	2
	25	7.69	0.95	2
	26	7.71	0.29	2
	27	7.74	0.65	2
	28	7.77	0.83	2
	29	7.79	0.69	2
	30	7.82	0.31	2
	31	7.84	0.86	2
	32	7.93	2.35	2
	33	7.96	1.03	2
	34	8	1.02	2
	35	8.01	0.33	2
	36	8.02	0.33	2
	37	8.03	0.33	2
	38	8.04	0.48	2
	39	8.05	0.41	2
	40	8.06	0.37	2
	41	8.07	0.56	2
	42	8.08	0.56	2
	43	8.09	0.56	2
	44	8.11	0.71	2
	45	8.12	0.65	2
	46	8.13	0.67	2
	47	8.15	0.68	2
	48	8.16	0.84	2.1
	49	8.2	1.48	2
	50	8.23	1.17	2
	51	8.26	0.99	2
	52	8.29	1.19	2
	53	8.32	1.17	2
	54	8.33	0.6	2
	55	8.35	0.59	2
	56	8.36	0.61	2
	57	8.38	0.64	2
	58	8.39	0.63	2
	59	8.39	0.27	2
	60	8.4	0.27	2
	61	8.4	0.27	2
	62	8.41	0.27	2
	63	8.41	0.27	2
	64	8.42	0.27	2
	65	8.43	0.46	2
	66	8.44	0.46	2
	67	8.45	0.27	2
	68	8.45	0.27	2
	69	8.46	0.28	2
	70	8.46	0.28	2
	71	8.47	0.28	2
	72	8.47	0.28	2
	73	8.48	0.28	2
	74	8.49	0.28	2
	75	8.49	0.28	2
	76	8.5	0.26	2
	77	8.5	0.26	2
	78	8.51	0.26	2
	79	8.52	0.62	2
	80	8.53	0.59	2
	81	8.54	0.46	2
	82	8.55	0.58	2
	83	8.57	0.65	2
	84	8.58	0.56	2
	85	8.59	0.56	2
	86	8.61	0.58	2
	87	8.62	0.6	2
	88	8.63	0.59	2
	89	8.64	0.51	2
	90	8.65	0.51	2
	91	8.68	0.96	2
	92	8.71	1.22	2
	93	8.73	0.79	2
	94	8.75	0.36	2
	95	8.76	0.36	2
	96	8.77	0.4	2
	97	8.78	0.47	2
	98	8.79	0.49	2
	99	8.8	0.51	2
	100	8.82	0.56	2
	101	8.83	0.56	2
	102	8.84	0.64	2
	103	8.86	0.68	2
	104	8.87	0.41	2
	105	8.89	0.47	2
	106	8.91	0.73	2
	107	8.99	2.83	2
	108	9.03	0.84	2
	109	9.04	0.35	2
	110	9.06	0.32	2
	111	9.07	0.3	2
	112	9.08	0.32	2
	113	9.09	0.42	2
	114	9.12	0.73	2
	115	9.14	0.55	2
	116	9.16	0.48	2
	117	9.17	0.32	2
	118	9.18	0.33	2
	119	9.19	0.33	2
	120	9.19	0.33	2
	121	9.2	0.37	2
	122	9.21	0.4	2
	123	9.23	0.45	2
	124	9.24	0.44	2
	125	9.25	0.43	2
	126	9.26	0.39	2
	127	9.27	0.36	2
	128	9.29	0.87	2
	129	9.32	0.99	2
	130	9.35	1.03	2
	131	9.38	0.85	2
	132	9.42	1.02	2
	133	9.46	1.24	2
	134	9.55	1.3	2
	135	9.73	1.82	2
	136	9.82	0.7	2
	137	9.86	0.62	2
	138	9.89	0.61	2
	139	9.93	0.54	2
	140	9.96	0.44	2
	141	9.99	0.28	2
	142	10.03	0.41	2
	143	10.07	0.32	2
	144	10.12	0.56	2
	145	10.17	0.68	2
	146	10.25	0.93	2
	147	10.31	0.77	2
	148	10.44	1.89	2
	149	10.5	0.41	2.4
	150	10.55	0.73	2
	151	10.61	1.85	2
	152	10.66	1.36	2
	153	10.73	1.94	2
	154	10.8	1.51	2
	155	10.86	1.73	2
	156	11.19	1.15	2

