File:              	C:\Qtrac\Data\Daniel M Sørensen\MScan multicentre study\Data from centres\Edmonton\MSCC00128C.QZD
Name:              	CA.EDM.NC.1.1
Protocol:          	MSCAN-R2
Date:              	28/1/20
Start time:        	14:26:35
Age:               	43
Sex:               	M
Temperature:       	35
S/R sites:         	CP Kn-TA
NC/disease:        	NC
Operator:          	KJ
Comments:
M-SCAN DATA (7.4-2.2m)
Scanpts: 90, 94, 547, 569
Stim. (mA)     	Amp. (mV)
MS.1           	15.5           	10.552
MS.2           	15.5           	10.58
MS.3           	15.5           	10.627
MS.4           	15.5           	10.53
MS.5           	15.5           	10.49
MS.6           	15.5           	10.476
MS.7           	15.5           	10.488
MS.8           	15.5           	10.506
MS.9           	15.5           	10.476
MS.10          	15.5           	10.456
MS.11          	15.5           	10.443
MS.12          	15.5           	10.472
MS.13          	15.5           	10.437
MS.14          	15.5           	10.443
MS.15          	15.5           	10.464
MS.16          	15.5           	10.427
MS.17          	15.5           	10.5
MS.18          	15.5           	10.474
MS.19          	15.5           	10.504
MS.20          	15.5           	10.48
MS.21          	15.5           	10.451
MS.22          	15.5           	10.488
MS.23          	15.5           	10.562
MS.24          	15.438         	10.5
MS.25          	15.407         	10.49
MS.26          	15.377         	10.506
MS.27          	15.345         	10.52
MS.28          	15.315         	10.516
MS.29          	15.285         	10.526
MS.30          	15.255         	10.5
MS.31          	15.222         	10.582
MS.32          	15.193         	10.486
MS.33          	15.162         	10.514
MS.34          	15.132         	10.578
MS.35          	15.102         	10.564
MS.36          	15.072         	10.596
MS.37          	15.042         	10.613
MS.38          	15.012         	10.576
MS.39          	14.983         	10.617
MS.40          	14.952         	10.578
MS.41          	14.922         	10.603
MS.42          	14.892         	10.599
MS.43          	14.862         	10.594
MS.44          	14.832         	10.607
MS.45          	14.802         	10.625
MS.46          	14.773         	10.633
MS.47          	14.745         	10.629
MS.48          	14.715         	10.655
MS.49          	14.685         	10.701
MS.50          	14.655         	10.677
MS.51          	14.627         	10.683
MS.52          	14.597         	10.603
MS.53          	14.568         	10.667
MS.54          	14.54          	10.665
MS.55          	14.51          	10.687
MS.56          	14.48          	10.681
MS.57          	14.452         	10.701
MS.58          	14.422         	10.685
MS.59          	14.395         	10.693
MS.60          	14.365         	10.681
MS.61          	14.337         	10.673
MS.62          	14.307         	10.715
MS.63          	14.28          	10.703
MS.64          	14.25          	10.689
MS.65          	14.222         	10.77
MS.66          	14.195         	10.723
MS.67          	14.165         	10.699
MS.68          	14.137         	10.697
MS.69          	14.11          	10.744
MS.70          	14.08          	10.756
MS.71          	14.052         	10.762
MS.72          	14.025         	10.806
MS.73          	13.997         	10.82
MS.74          	13.97          	10.764
MS.75          	13.94          	10.788
MS.76          	13.912         	10.78
MS.77          	13.885         	10.723
MS.78          	13.858         	10.818
MS.79          	13.83          	10.848
MS.80          	13.802         	10.776
MS.81          	13.775         	10.808
MS.82          	13.747         	10.792
MS.83          	13.72          	10.8
MS.84          	13.693         	10.84
MS.85          	13.665         	10.78
MS.86          	13.637         	10.79
MS.87          	13.61          	10.768
MS.88          	13.582         	10.846
MS.89          	13.555         	10.903
MS.90          	13.53          	10.895
MS.91          	13.502         	10.88
MS.92          	13.475         	10.858
MS.93          	13.447         	10.822
MS.94          	13.42          	10.88
MS.95          	13.395         	10.878
MS.96          	13.367         	10.878
MS.97          	13.34          	10.858
MS.98          	13.315         	10.854
MS.99          	13.287         	10.8
MS.100         	13.26          	10.814
MS.101         	13.235         	10.872
MS.102         	13.207         	10.729
MS.103         	13.182         	10.858
MS.104         	13.155         	10.645
MS.105         	13.13          	10.677
MS.106         	13.102         	10.53
MS.107         	13.077         	10.792
MS.108         	13.05          	10.876
MS.109         	13.025         	10.689
MS.110         	12.997         	10.647
MS.111         	12.972         	10.889
MS.112         	12.947         	10.766
MS.113         	12.92          	10.935
MS.114         	12.895         	10.693
MS.115         	12.87          	10.762
MS.116         	12.842         	10.603
MS.117         	12.818         	10.548
MS.118         	12.792         	10.538
MS.119         	12.767         	10.524
MS.120         	12.74          	10.665
MS.121         	12.715         	10.685
MS.122         	12.69          	10.731
MS.123         	12.665         	10.594
MS.124         	12.64          	10.5
MS.125         	12.615         	10.592
MS.126         	12.59          	10.5
MS.127         	12.565         	10.516
MS.128         	12.54          	10.484
MS.129         	12.515         	10.562
MS.130         	12.49          	10.58
MS.131         	12.465         	10.673
MS.132         	12.44          	10.502
MS.133         	12.415         	10.504
MS.134         	12.39          	10.449
MS.135         	12.365         	10.49
MS.136         	12.34          	10.433
MS.137         	12.315         	10.375
MS.138         	12.29          	10.319
MS.139         	12.265         	10.478
MS.140         	12.242         	10.496
MS.141         	12.217         	10.466
MS.142         	12.193         	10.405
MS.143         	12.167         	10.464
MS.144         	12.145         	10.298
MS.145         	12.12          	10.294
MS.146         	12.095         	10.264
MS.147         	12.072         	10.315
MS.148         	12.047         	10.331
MS.149         	12.023         	10.327
MS.150         	12             	10.308
MS.151         	11.975         	10.214
MS.152         	11.95          	10.27
MS.153         	11.927         	10.268
MS.154         	11.903         	10.244
MS.155         	11.88          	10.053
MS.156         	11.855         	10.343
MS.157         	11.832         	9.906
MS.158         	11.807         	10.002
MS.159         	11.785         	9.938
MS.160         	11.762         	9.894
MS.161         	11.738         	10.167
MS.162         	11.715         	9.91
MS.163         	11.69          	9.966
MS.164         	11.667         	9.797
MS.165         	11.645         	10.25
MS.166         	11.622         	10.117
MS.167         	11.597         	9.825
MS.168         	11.575         	9.962
MS.169         	11.552         	10.014
MS.170         	11.528         	9.839
MS.171         	11.505         	9.742
MS.172         	11.483         	10.093
MS.173         	11.46          	9.541
MS.174         	11.438         	9.732
MS.175         	11.415         	9.93
MS.176         	11.39          	9.751
MS.177         	11.367         	9.718
MS.178         	11.345         	9.789
MS.179         	11.322         	9.742
MS.180         	11.3           	9.9
MS.181         	11.278         	9.779
MS.182         	11.255         	9.751
MS.183         	11.233         	9.896
MS.184         	11.21          	9.765
MS.185         	11.188         	9.257
MS.186         	11.165         	9.533
MS.187         	11.142         	9.374
MS.188         	11.12          	9.285
MS.189         	11.1           	9.599
MS.190         	11.077         	9.446
MS.191         	11.055         	9.209
MS.192         	11.032         	9.263
MS.193         	11.01          	9.217
MS.194         	10.988         	9.187
MS.195         	10.967         	9.225
MS.196         	10.945         	9.181
MS.197         	10.922         	8.933
MS.198         	10.9           	8.987
MS.199         	10.88          	8.933
MS.200         	10.858         	9.064
MS.201         	10.835         	8.943
MS.202         	10.815         	8.774
MS.203         	10.792         	8.86
MS.204         	10.77          	8.907
MS.205         	10.75          	8.854
MS.206         	10.727         	8.592
MS.207         	10.707         	8.893
MS.208         	10.685         	8.486
MS.209         	10.662         	8.427
MS.210         	10.642         	8.431
MS.211         	10.62          	8.474
MS.212         	10.6           	8.125
MS.213         	10.577         	8.099
MS.214         	10.557         	8.282
MS.215         	10.537         	8.373
MS.216         	10.515         	8.355
MS.217         	10.495         	8.335
MS.218         	10.472         	8.155
MS.219         	10.452         	8.095
MS.220         	10.432         	7.863
MS.221         	10.41          	8.016
MS.222         	10.39          	7.994
MS.223         	10.37          	8.03
MS.224         	10.347         	7.845
MS.225         	10.327         	7.869
MS.226         	10.307         	7.027
MS.227         	10.287         	7.593
MS.228         	10.265         	7.704
MS.229         	10.245         	7.587
MS.230         	10.225         	7.33
MS.231         	10.205         	7.267
MS.232         	10.185         	7.253
MS.233         	10.165         	7.197
MS.234         	10.142         	7.195
MS.235         	10.122         	6.888
MS.236         	10.102         	6.898
MS.237         	10.082         	6.705
MS.238         	10.062         	6.582
MS.239         	10.042         	6.592
MS.240         	10.023         	6.48
MS.241         	10.002         	6.615
MS.242         	9.983          	6.478
MS.243         	9.962          	6.514
MS.244         	9.943          	6.359
MS.245         	9.922          	6.181
MS.246         	9.903          	6.653
MS.247         	9.882          	6.288
MS.248         	9.863          	6.55
MS.249         	9.842          	6.137
MS.250         	9.825          	5.97
MS.251         	9.805          	5.98
MS.252         	9.785          	6.252
MS.253         	9.765          	5.847
MS.254         	9.745          	5.758
MS.255         	9.727          	5.972
MS.256         	9.707          	5.511
MS.257         	9.688          	5.942
MS.258         	9.667          	6.028
MS.259         	9.65           	5.591
MS.260         	9.63           	5.75
MS.261         	9.61           	5.595
MS.262         	9.59           	5.315
MS.263         	9.573          	5.36
MS.264         	9.552          	5.12
MS.265         	9.532          	5.12
MS.266         	9.515          	5.346
MS.267         	9.495          	5.213
MS.268         	9.477          	5.317
MS.269         	9.457          	5.241
MS.270         	9.44           	5.062
MS.271         	9.42           	5.064
MS.272         	9.4            	5.106
MS.273         	9.382          	4.945
MS.274         	9.363          	5.305
MS.275         	9.345          	4.995
MS.276         	9.327          	4.913
MS.277         	9.307          	4.939
MS.278         	9.29           	4.341
MS.279         	9.27           	4.639
MS.280         	9.252          	4.536
MS.281         	9.233          	4.496
MS.282         	9.215          	4.461
MS.283         	9.198          	4.375
MS.284         	9.177          	4.304
MS.285         	9.16           	4.383
MS.286         	9.142          	4.625
MS.287         	9.122          	4.395
MS.288         	9.105          	4.141
MS.289         	9.087          	4.365
MS.290         	9.07           	4.23
MS.291         	9.05           	4.075
MS.292         	9.033          	4.357
MS.293         	9.015          	4.095
MS.294         	8.997          	4.236
MS.295         	8.977          	4.091
MS.296         	8.96           	4.008
MS.297         	8.943          	3.891
MS.298         	8.925          	4.089
MS.299         	8.908          	3.942
MS.300         	8.89           	3.853
MS.301         	8.872          	3.783
MS.302         	8.852          	3.849
MS.303         	8.835          	3.871
MS.304         	8.818          	3.843
MS.305         	8.8            	3.738
MS.306         	8.783          	3.666
MS.307         	8.765          	3.674
MS.308         	8.747          	3.615
MS.309         	8.73           	3.688
MS.310         	8.712          	3.585
MS.311         	8.695          	3.456
MS.312         	8.677          	3.47
MS.313         	8.66           	3.38
MS.314         	8.642          	3.579
MS.315         	8.627          	3.414
MS.316         	8.61           	3.36
MS.317         	8.592          	3.402
MS.318         	8.575          	3.348
MS.319         	8.557          	3.277
MS.320         	8.54           	3.344
MS.321         	8.523          	3.265
MS.322         	8.507          	3.253
MS.323         	8.49           	3.297
MS.324         	8.472          	3.096
MS.325         	8.455          	2.959
MS.326         	8.44           	2.844
MS.327         	8.422          	2.784
MS.328         	8.405          	3.12
MS.329         	8.387          	2.919
MS.330         	8.372          	2.914
MS.331         	8.355          	2.971
MS.332         	8.337          	2.933
MS.333         	8.323          	2.812
MS.334         	8.305          	2.892
MS.335         	8.287          	2.681
MS.336         	8.273          	2.693
MS.337         	8.255          	2.614
MS.338         	8.238          	2.588
MS.339         	8.222          	2.455
MS.340         	8.205          	2.544
MS.341         	8.19           	2.53
MS.342         	8.172          	2.351
MS.343         	8.158          	2.594
MS.344         	8.14           	2.27
MS.345         	8.125          	2.322
MS.346         	8.108          	2.306
MS.347         	8.092          	2.238
MS.348         	8.075          	2.113
MS.349         	8.06           	2.046
MS.350         	8.042          	2.21
MS.351         	8.028          	2.101
MS.352         	8.01           	2.224
MS.353         	7.995          	2.062
MS.354         	7.98           	1.887
MS.355         	7.962          	2.103
MS.356         	7.947          	2.085
MS.357         	7.932          	2.038
MS.358         	7.915          	2.05
MS.359         	7.9            	1.879
MS.360         	7.885          	1.94
MS.361         	7.867          	1.909
MS.362         	7.852          	1.813
MS.363         	7.837          	1.827
MS.364         	7.82           	1.863
MS.365         	7.805          	1.797
MS.366         	7.79           	1.785
MS.367         	7.775          	1.74
MS.368         	7.76           	1.772
MS.369         	7.742          	1.718
MS.370         	7.727          	1.694
MS.371         	7.712          	1.64
MS.372         	7.697          	1.623
MS.373         	7.682          	1.513
MS.374         	7.668          	1.654
MS.375         	7.65           	1.621
MS.376         	7.635          	1.507
MS.377         	7.62           	1.577
MS.378         	7.605          	1.505
MS.379         	7.59           	1.356
MS.380         	7.575          	1.362
MS.381         	7.56           	1.305
MS.382         	7.545          	1.352
MS.383         	7.53           	1.41
MS.384         	7.515          	1.289
MS.385         	7.5            	1.394
MS.386         	7.485          	1.295
MS.387         	7.47           	1.239
MS.388         	7.455          	1.162
MS.389         	7.44           	1.104
MS.390         	7.425          	1.162
MS.391         	7.41           	1.152
MS.392         	7.395          	1.156
MS.393         	7.38           	1.09
MS.394         	7.365          	1.18
MS.395         	7.35           	1.134
MS.396         	7.337          	1.112
MS.397         	7.322          	1.049
MS.398         	7.307          	0.981
MS.399         	7.293          	1.025
MS.400         	7.277          	1.074
MS.401         	7.262          	0.949
MS.402         	7.25           	1.037
MS.403         	7.235          	0.908
MS.404         	7.22           	1.023
MS.405         	7.205          	0.87
MS.406         	7.19           	0.989
MS.407         	7.177          	0.906
MS.408         	7.162          	0.898
MS.409         	7.148          	0.796
MS.410         	7.132          	0.747
MS.411         	7.12           	0.798
MS.412         	7.105          	0.763
MS.413         	7.09           	0.717
MS.414         	7.077          	0.868
MS.415         	7.062          	0.779
MS.416         	7.047          	0.711
MS.417         	7.035          	0.699
MS.418         	7.02           	0.705
MS.419         	7.007          	0.802
MS.420         	6.992          	0.693
MS.421         	6.977          	0.653
MS.422         	6.965          	0.576
MS.423         	6.95           	0.542
MS.424         	6.938          	0.618
MS.425         	6.922          	0.506
MS.426         	6.91           	0.493
MS.427         	6.895          	0.467
MS.428         	6.882          	0.55
MS.429         	6.867          	0.514
MS.430         	6.855          	0.522
MS.431         	6.84           	0.526
MS.432         	6.827          	0.477
MS.433         	6.812          	0.475
MS.434         	6.8            	0.415
MS.435         	6.785          	0.463
MS.436         	6.773          	0.439
MS.437         	6.757          	0.407
MS.438         	6.745          	0.359
MS.439         	6.733          	0.437
MS.440         	6.717          	0.467
MS.441         	6.705          	0.346
MS.442         	6.692          	0.375
MS.443         	6.677          	0.377
MS.444         	6.665          	0.33
MS.445         	6.652          	0.34
MS.446         	6.637          	0.373
MS.447         	6.625          	0.344
MS.448         	6.612          	0.35
MS.449         	6.597          	0.381
MS.450         	6.585          	0.296
MS.451         	6.572          	0.33
MS.452         	6.56           	0.31
MS.453         	6.545          	0.276
MS.454         	6.532          	0.278
MS.455         	6.52           	0.284
MS.456         	6.507          	0.304
MS.457         	6.492          	0.298
MS.458         	6.48           	0.284
MS.459         	6.467          	0.26
MS.460         	6.455          	0.266
MS.461         	6.442          	0.246
MS.462         	6.43           	0.246
MS.463         	6.418          	0.246
MS.464         	6.402          	0.216
MS.465         	6.39           	0.248
MS.466         	6.378          	0.183
MS.467         	6.365          	0.179
MS.468         	6.352          	0.222
MS.469         	6.34           	0.173
MS.470         	6.327          	0.203
MS.471         	6.315          	0.214
MS.472         	6.302          	0.175
MS.473         	6.29           	0.207
MS.474         	6.277          	0.149
MS.475         	6.265          	0.203
MS.476         	6.253          	0.161
MS.477         	6.24           	0.179
MS.478         	6.227          	0.147
MS.479         	6.215          	0.171
MS.480         	6.202          	0.137
MS.481         	6.19           	0.153
MS.482         	6.177          	0.159
MS.483         	6.165          	0.131
MS.484         	6.152          	0.123
MS.485         	6.14           	0.107
MS.486         	6.128          	0.097
MS.487         	6.115          	0.175
MS.488         	6.102          	0.133
MS.489         	6.09           	0.137
MS.490         	6.08           	0.135
MS.491         	6.067          	0.111
MS.492         	6.055          	0.115
MS.493         	6.043          	0.091
MS.494         	6.03           	0.083
MS.495         	6.017          	0.135
MS.496         	6.007          	0.073
MS.497         	5.995          	0.125
MS.498         	5.983          	0.105
MS.499         	5.97           	0.109
MS.500         	5.957          	0.068
MS.501         	5.947          	0.068
MS.502         	5.935          	0.046
MS.503         	5.922          	0.083
MS.504         	5.91           	0.101
MS.505         	5.9            	0.101
MS.506         	5.887          	0.06
MS.507         	5.875          	0.016
MS.508         	5.865          	0.077
MS.509         	5.852          	0.07
MS.510         	5.84           	0.05
MS.511         	5.83           	0.052
MS.512         	5.817          	0.032
MS.513         	5.805          	0.012
MS.514         	5.795          	0.012
MS.515         	5.782          	0.062
MS.516         	5.77           	0.042
MS.517         	5.76           	0.077
MS.518         	5.747          	0.028
MS.519         	5.737          	0.01
MS.520         	5.725          	0.044
MS.521         	5.713          	0.05
MS.522         	5.702          	0.044
MS.523         	5.69           	0.012
MS.524         	5.68           	0.016
MS.525         	5.668          	0.024
MS.526         	5.657          	0.012
MS.527         	5.645          	0.042
MS.528         	5.635          	0.008
MS.529         	5.622          	0.01
MS.530         	5.612          	0.014
MS.531         	5.6            	0.058
MS.532         	5.59           	0.066
MS.533         	5.577          	0.014
MS.534         	5.567          	0.01
MS.535         	5.555          	0.012
MS.536         	5.545          	0.012
MS.537         	5.532          	0.008
MS.538         	5.523          	0.038
MS.539         	5.512          	0.038
MS.540         	5.5            	0.04
MS.541         	5.49           	0.01
MS.542         	5.477          	0.008
MS.543         	5.467          	0.01
MS.544         	5.457          	0.01
MS.545         	5.445          	0.012
MS.546         	5.435          	0.006
MS.547         	5.425          	0.008
MS.548         	5.412          	0.01
MS.549         	5.402          	0.008
MS.550         	5.392          	0.006
MS.551         	5.38           	0.008
MS.552         	5.37           	0.006
MS.553         	5.36           	0.006
MS.554         	5.347          	0.006
MS.555         	5.338          	0.008
MS.556         	5.327          	0.006
MS.557         	5.318          	0.008
MS.558         	5.305          	0.006
MS.559         	5.295          	0.006
MS.560         	5.285          	0.008
MS.561         	5.275          	0.006
MS.562         	5.262          	0.008
MS.563         	5.253          	0.006
MS.564         	5.242          	0.008
MS.565         	5.233          	0.006
MS.566         	5.222          	0.008
MS.567         	5.213          	0.006
MS.568         	5.2            	0.006
MS.569         	5.19           	0.008
DERIVED EXCITABILITY VARIABLES
Program = QTracP 3/4/2020
Threshold method = 6 (optimised for CAP, using data for present condition only)
SR method = 1 (using actual data values)
6.                 	0.000               	Peak response\(mV)
9.                 	35                  	Temperature ( C)
17.                	43                  	Age (years)
18.                	1                   	Sex (M=1, F=2)

EXTRA VARIABLES

MScPeak(mV) = 10.48
MScS5(mA) = 6.87
MScS50(mA) = 9.47
MScS95(mA) = 11.67
MScNSteps = 2
MScSteps(%) = 5.1
MScStepMax(%) = 2.6
MScD50 = 53
MScSlope = 4.55
MSFPeakAmp(mV) = 10.9
MSFNUnits = 158
MSFMeanUnitAmp(uV) = 68.7
MSFHuntTime(m) = 2.58
MSFError(%) = 4.07
MSFNLarge = 46.28
MSFMedianAmp(%) = 0.471
MSFMedianAmp(mV) = 0.0512
MSFHalfAmpAmp(%) = 0.861
MSFHalfAmpAmp(mV) = 0.0935
MSFLargestAmp(%) = 2.05
MSFLargestAmp(mV) = 0.223
MSFMeanRS(%) = 2
MSFOpts = 10106121
MScDuration(min) = 5.2
MSFTraces = 480
MSFSizeLimit(uV) = 27.1
MSFLimitType = 1
MSFSmallestAmp(uV) = 27.9

EXTRA WAVEFORMS


!MScan Model
!158
	1	5.72	0.27	2
	2	5.88	0.41	2
	3	6.09	0.39	2
	4	6.18	0.26	2
	5	6.28	0.33	2
	6	6.4	0.58	2
	7	6.53	0.44	2
	8	6.6	0.38	2
	9	6.69	0.47	2
	10	6.74	0.28	2
	11	6.77	0.27	2
	12	6.81	0.3	2
	13	6.84	0.29	2
	14	6.88	0.29	2
	15	6.9	0.26	2
	16	6.93	0.26	2
	17	6.96	0.27	2
	18	6.99	0.28	2
	19	7.01	0.3	2
	20	7.04	0.29	2
	21	7.07	0.3	2
	22	7.09	0.31	2
	23	7.12	0.31	2
	24	7.14	0.3	2
	25	7.17	0.32	2
	26	7.2	0.36	2
	27	7.24	0.34	2
	28	7.27	0.33	2
	29	7.3	0.34	2
	30	7.32	0.33	2
	31	7.35	0.31	2
	32	7.37	0.31	2
	33	7.4	0.32	2
	34	7.42	0.29	2
	35	7.44	0.3	2
	36	7.46	0.26	2
	37	7.49	0.4	2
	38	7.52	0.53	2
	39	7.57	0.52	2
	40	7.6	0.41	2
	41	7.62	0.4	2
	42	7.65	0.42	2
	43	7.68	0.43	2
	44	7.71	0.47	2
	45	7.73	0.27	2
	46	7.75	0.27	2
	47	7.77	0.29	2
	48	7.79	0.41	2
	49	7.82	0.41	2
	50	7.85	0.39	2
	51	7.88	0.44	2
	52	7.91	0.46	2
	53	7.93	0.4	2
	54	7.96	0.37	2
	55	7.98	0.38	2
	56	8	0.39	2
	57	8.02	0.39	2
	58	8.05	0.41	2
	59	8.07	0.44	2
	60	8.1	0.51	2
	61	8.12	0.5	2
	62	8.15	0.49	2
	63	8.18	0.46	2
	64	8.21	0.48	2
	65	8.23	0.51	2
	66	8.25	0.47	2
	67	8.28	0.46	2
	68	8.3	0.46	2
	69	8.32	0.46	2
	70	8.34	0.49	2
	71	8.37	0.54	2
	72	8.39	0.51	2
	73	8.42	0.48	2
	74	8.44	0.47	2
	75	8.46	0.43	2
	76	8.49	0.42	2
	77	8.51	0.42	2
	78	8.53	0.44	2
	79	8.56	0.44	2
	80	8.58	0.43	2
	81	8.6	0.42	2
	82	8.63	0.4	2
	83	8.65	0.4	2
	84	8.67	0.41	2
	85	8.69	0.4	2
	86	8.71	0.4	2
	87	8.74	0.39	2
	88	8.76	0.38	2
	89	8.78	0.36	2
	90	8.8	0.37	2
	91	8.82	0.39	2
	92	8.84	0.39	2
	93	8.87	0.47	2
	94	8.9	0.5	2
	95	8.93	0.49	2
	96	8.97	0.54	2
	97	9.01	0.82	2
	98	9.06	0.86	2
	99	9.1	0.88	2
	100	9.14	0.94	2
	101	9.19	0.91	2
	102	9.23	0.72	2
	103	9.27	1.11	2
	104	9.32	0.85	2
	105	9.36	1.01	2
	106	9.41	1.1	2
	107	9.45	1.05	2
	108	9.5	1.05	2
	109	9.55	1.26	2
	110	9.6	1.26	2
	111	9.63	0.9	2
	112	9.67	0.87	2
	113	9.71	0.87	2
	114	9.75	1	2
	115	9.79	0.96	2
	116	9.83	0.86	2
	117	9.86	0.9	2
	118	9.89	0.94	2
	119	9.93	1.11	2
	120	9.98	1.2	2
	121	10.01	0.95	2
	122	10.04	0.9	2
	123	10.07	0.94	2
	124	10.11	0.96	2
	125	10.14	0.92	2
	126	10.17	0.93	2
	127	10.2	0.89	2
	128	10.23	0.81	2
	129	10.26	0.79	2
	130	10.29	0.78	2
	131	10.32	0.87	2
	132	10.36	0.98	2
	133	10.39	0.96	2
	134	10.43	1.22	2
	135	10.48	1.15	2
	136	10.52	1.09	2
	137	10.57	1.12	2
	138	10.62	0.96	2
	139	10.65	0.81	2
	140	10.69	0.77	2
	141	10.73	0.73	2
	142	10.77	0.73	2
	143	10.81	0.7	2
	144	10.85	0.75	2
	145	10.89	0.84	2
	146	10.94	0.93	2
	147	10.99	0.96	2
	148	11.04	0.88	2
	149	11.12	1.3	2
	150	11.2	1.37	2
	151	11.36	1.91	2
	152	11.68	2.05	2
	153	11.88	1.43	2
	154	12.03	0.92	2
	155	12.16	0.9	2
	156	12.31	0.86	2
	157	12.56	1.08	2
	158	13.1	1.86	2

