File:              	C:\Qtrac\Data\Daniel M Sørensen\MScan multicentre study\Data from centres\Edmonton\Processed data\MSCC00925A.QZD
Name:              	CA.EDM.NC.8.1
Protocol:          	MSCAN-R2
Date:              	25/9/20
Start time:        	19:43:33
Age:               	44
Sex:               	F
Temperature:       	33.8
S/R sites:         	APB
NC/disease:        	NC
Operator:          	KJ
Comments:
M-SCAN DATA (6.2-2m)
Scanpts: 111, 117, 445, 467
Stim. (mA)     	Amp. (mV)
MS.1           	13             	12.389
MS.2           	13             	12.391
MS.3           	13             	12.399
MS.4           	13             	12.353
MS.5           	13             	12.353
MS.6           	13             	12.351
MS.7           	13             	12.353
MS.8           	13             	12.349
MS.9           	13             	12.353
MS.10          	13             	12.345
MS.11          	13             	12.349
MS.12          	13             	12.347
MS.13          	13             	12.353
MS.14          	13             	12.355
MS.15          	13             	12.375
MS.16          	13             	12.347
MS.17          	13             	12.345
MS.18          	13             	12.365
MS.19          	13             	12.359
MS.20          	13             	12.363
MS.21          	13             	12.355
MS.22          	13             	12.367
MS.23          	13             	12.377
MS.24          	12.947         	12.353
MS.25          	12.922         	12.353
MS.26          	12.898         	12.357
MS.27          	12.87          	12.355
MS.28          	12.845         	12.355
MS.29          	12.82          	12.361
MS.30          	12.792         	12.353
MS.31          	12.767         	12.345
MS.32          	12.742         	12.357
MS.33          	12.717         	12.361
MS.34          	12.693         	12.367
MS.35          	12.667         	12.363
MS.36          	12.64          	12.357
MS.37          	12.615         	12.357
MS.38          	12.59          	12.369
MS.39          	12.565         	12.359
MS.40          	12.54          	12.363
MS.41          	12.515         	12.373
MS.42          	12.49          	12.371
MS.43          	12.465         	12.361
MS.44          	12.44          	12.361
MS.45          	12.415         	12.365
MS.46          	12.39          	12.367
MS.47          	12.365         	12.375
MS.48          	12.34          	12.373
MS.49          	12.318         	12.371
MS.50          	12.292         	12.373
MS.51          	12.267         	12.369
MS.52          	12.242         	12.369
MS.53          	12.217         	12.371
MS.54          	12.195         	12.379
MS.55          	12.17          	12.375
MS.56          	12.145         	12.373
MS.57          	12.12          	12.375
MS.58          	12.097         	12.373
MS.59          	12.072         	12.377
MS.60          	12.047         	12.381
MS.61          	12.025         	12.385
MS.62          	12             	12.383
MS.63          	11.977         	12.381
MS.64          	11.952         	12.395
MS.65          	11.927         	12.383
MS.66          	11.905         	12.381
MS.67          	11.88          	12.377
MS.68          	11.858         	12.385
MS.69          	11.832         	12.385
MS.70          	11.81          	12.381
MS.71          	11.787         	12.383
MS.72          	11.762         	12.383
MS.73          	11.74          	12.387
MS.74          	11.715         	12.389
MS.75          	11.693         	12.383
MS.76          	11.67          	12.389
MS.77          	11.645         	12.397
MS.78          	11.622         	12.397
MS.79          	11.6           	12.389
MS.80          	11.575         	12.401
MS.81          	11.552         	12.397
MS.82          	11.53          	12.397
MS.83          	11.507         	12.399
MS.84          	11.485         	12.361
MS.85          	11.46          	12.359
MS.86          	11.438         	12.397
MS.87          	11.415         	12.393
MS.88          	11.392         	12.365
MS.89          	11.37          	12.403
MS.90          	11.347         	12.405
MS.91          	11.325         	12.407
MS.92          	11.302         	12.367
MS.93          	11.28          	12.415
MS.94          	11.257         	12.371
MS.95          	11.235         	12.415
MS.96          	11.212         	12.383
MS.97          	11.19          	12.375
MS.98          	11.167         	12.379
MS.99          	11.145         	12.413
MS.100         	11.122         	12.373
MS.101         	11.1           	12.419
MS.102         	11.077         	12.359
MS.103         	11.055         	12.379
MS.104         	11.032         	12.389
MS.105         	11.012         	12.385
MS.106         	10.99          	12.381
MS.107         	10.967         	12.433
MS.108         	10.945         	12.373
MS.109         	10.925         	12.401
MS.110         	10.903         	12.391
MS.111         	10.88          	12.385
MS.112         	10.858         	12.387
MS.113         	10.837         	12.387
MS.114         	10.815         	12.381
MS.115         	10.792         	12.385
MS.116         	10.773         	12.399
MS.117         	10.75          	12.399
MS.118         	10.73          	12.403
MS.119         	10.707         	12.407
MS.120         	10.685         	12.397
MS.121         	10.665         	12.405
MS.122         	10.642         	12.413
MS.123         	10.622         	12.397
MS.124         	10.6           	12.367
MS.125         	10.58          	12.391
MS.126         	10.557         	12.357
MS.127         	10.537         	12.335
MS.128         	10.517         	12.343
MS.129         	10.495         	12.329
MS.130         	10.475         	12.321
MS.131         	10.452         	12.313
MS.132         	10.432         	12.389
MS.133         	10.412         	12.319
MS.134         	10.39          	12.329
MS.135         	10.37          	12.325
MS.136         	10.35          	12.337
MS.137         	10.33          	12.311
MS.138         	10.307         	12.333
MS.139         	10.287         	12.351
MS.140         	10.267         	12.339
MS.141         	10.247         	12.347
MS.142         	10.225         	12.067
MS.143         	10.205         	12.305
MS.144         	10.185         	12.343
MS.145         	10.165         	12.343
MS.146         	10.145         	12.296
MS.147         	10.125         	12.298
MS.148         	10.105         	12.327
MS.149         	10.085         	12.067
MS.150         	10.065         	12.069
MS.151         	10.042         	11.926
MS.152         	10.023         	12.057
MS.153         	10.002         	12.246
MS.154         	9.983          	11.809
MS.155         	9.962          	11.761
MS.156         	9.945          	11.666
MS.157         	9.925          	11.755
MS.158         	9.905          	11.724
MS.159         	9.885          	11.638
MS.160         	9.865          	11.682
MS.161         	9.845          	11.751
MS.162         	9.825          	11.682
MS.163         	9.805          	11.692
MS.164         	9.785          	11.722
MS.165         	9.767          	11.652
MS.166         	9.747          	11.678
MS.167         	9.727          	11.577
MS.168         	9.707          	11.412
MS.169         	9.688          	11.358
MS.170         	9.67           	11.654
MS.171         	9.65           	11.551
MS.172         	9.63           	11.44
MS.173         	9.613          	11.543
MS.174         	9.592          	11.177
MS.175         	9.573          	11.08
MS.176         	9.555          	11.013
MS.177         	9.535          	11.021
MS.178         	9.515          	11.058
MS.179         	9.497          	11.164
MS.180         	9.477          	10.989
MS.181         	9.46           	10.373
MS.182         	9.44           	10.621
MS.183         	9.42           	10.536
MS.184         	9.403          	10.026
MS.185         	9.382          	10.157
MS.186         	9.365          	10.192
MS.187         	9.345          	9.95
MS.188         	9.327          	10.329
MS.189         	9.307          	9.813
MS.190         	9.29           	10.103
MS.191         	9.273          	9.702
MS.192         	9.252          	9.269
MS.193         	9.235          	9.291
MS.194         	9.215          	8.719
MS.195         	9.198          	9.354
MS.196         	9.18           	8.965
MS.197         	9.16           	9.694
MS.198         	9.142          	8.655
MS.199         	9.125          	8.486
MS.200         	9.105          	8.306
MS.201         	9.087          	8.893
MS.202         	9.07           	8.107
MS.203         	9.052          	8.312
MS.204         	9.033          	8.886
MS.205         	9.015          	7.93
MS.206         	8.997          	8.099
MS.207         	8.98           	7.97
MS.208         	8.962          	7.855
MS.209         	8.943          	7.763
MS.210         	8.925          	7.926
MS.211         	8.908          	8.443
MS.212         	8.89           	7.698
MS.213         	8.872          	6.969
MS.214         	8.855          	7.187
MS.215         	8.837          	7.239
MS.216         	8.82           	7.317
MS.217         	8.802          	7.009
MS.218         	8.785          	6.816
MS.219         	8.767          	6.745
MS.220         	8.75           	6.977
MS.221         	8.733          	7.021
MS.222         	8.715          	6.81
MS.223         	8.698          	6.598
MS.224         	8.68           	6.669
MS.225         	8.662          	6.312
MS.226         	8.645          	6.51
MS.227         	8.627          	6.669
MS.228         	8.61           	6.391
MS.229         	8.592          	6.629
MS.230         	8.575          	6.514
MS.231         	8.557          	6.441
MS.232         	8.542          	6.389
MS.233         	8.525          	5.916
MS.234         	8.507          	5.942
MS.235         	8.49           	5.944
MS.236         	8.472          	5.807
MS.237         	8.457          	5.857
MS.238         	8.44           	5.853
MS.239         	8.422          	5.644
MS.240         	8.405          	5.219
MS.241         	8.39           	5.251
MS.242         	8.372          	5.251
MS.243         	8.355          	5.213
MS.244         	8.34           	5.537
MS.245         	8.323          	5.16
MS.246         	8.305          	5.033
MS.247         	8.29           	4.957
MS.248         	8.273          	4.983
MS.249         	8.255          	4.814
MS.250         	8.24           	4.84
MS.251         	8.222          	4.504
MS.252         	8.207          	4.33
MS.253         	8.19           	4.471
MS.254         	8.175          	4.3
MS.255         	8.158          	4.081
MS.256         	8.142          	4.304
MS.257         	8.125          	4.258
MS.258         	8.11           	4.479
MS.259         	8.092          	3.877
MS.260         	8.077          	3.94
MS.261         	8.06           	4.115
MS.262         	8.045          	3.922
MS.263         	8.028          	3.752
MS.264         	8.012          	3.537
MS.265         	7.995          	3.418
MS.266         	7.98           	3.374
MS.267         	7.965          	3.327
MS.268         	7.947          	3.084
MS.269         	7.932          	3.021
MS.270         	7.918          	3.092
MS.271         	7.9            	3.164
MS.272         	7.885          	2.818
MS.273         	7.87           	2.874
MS.274         	7.852          	3.128
MS.275         	7.837          	3.249
MS.276         	7.822          	2.933
MS.277         	7.807          	2.715
MS.278         	7.79           	2.711
MS.279         	7.775          	2.594
MS.280         	7.76           	2.838
MS.281         	7.745          	2.57
MS.282         	7.727          	2.562
MS.283         	7.712          	2.441
MS.284         	7.697          	2.437
MS.285         	7.682          	2.433
MS.286         	7.668          	2.616
MS.287         	7.652          	2.306
MS.288         	7.637          	2.26
MS.289         	7.622          	2.155
MS.290         	7.605          	2.282
MS.291         	7.59           	2.262
MS.292         	7.575          	2.101
MS.293         	7.56           	1.986
MS.294         	7.545          	2.058
MS.295         	7.53           	1.903
MS.296         	7.515          	2.067
MS.297         	7.5            	1.988
MS.298         	7.485          	1.748
MS.299         	7.47           	1.682
MS.300         	7.455          	1.67
MS.301         	7.44           	1.611
MS.302         	7.425          	1.656
MS.303         	7.41           	1.563
MS.304         	7.395          	1.654
MS.305         	7.382          	1.281
MS.306         	7.367          	1.462
MS.307         	7.352          	1.386
MS.308         	7.337          	1.458
MS.309         	7.322          	1.339
MS.310         	7.307          	1.424
MS.311         	7.293          	1.249
MS.312         	7.277          	1.172
MS.313         	7.265          	1.19
MS.314         	7.25           	1.198
MS.315         	7.235          	1.215
MS.316         	7.22           	1.116
MS.317         	7.205          	0.991
MS.318         	7.192          	1.237
MS.319         	7.177          	1.029
MS.320         	7.162          	0.959
MS.321         	7.15           	1.009
MS.322         	7.135          	1.114
MS.323         	7.12           	0.967
MS.324         	7.105          	0.868
MS.325         	7.092          	0.896
MS.326         	7.077          	0.689
MS.327         	7.062          	0.842
MS.328         	7.05           	0.935
MS.329         	7.035          	0.82
MS.330         	7.023          	0.626
MS.331         	7.007          	0.612
MS.332         	6.992          	0.508
MS.333         	6.98           	0.53
MS.334         	6.965          	0.673
MS.335         	6.952          	0.578
MS.336         	6.938          	0.506
MS.337         	6.922          	0.493
MS.338         	6.91           	0.443
MS.339         	6.895          	0.441
MS.340         	6.882          	0.514
MS.341         	6.867          	0.439
MS.342         	6.855          	0.487
MS.343         	6.84           	0.381
MS.344         	6.827          	0.334
MS.345         	6.815          	0.403
MS.346         	6.8            	0.395
MS.347         	6.787          	0.326
MS.348         	6.773          	0.306
MS.349         	6.76           	0.33
MS.350         	6.745          	0.389
MS.351         	6.733          	0.344
MS.352         	6.72           	0.328
MS.353         	6.705          	0.304
MS.354         	6.692          	0.26
MS.355         	6.68           	0.278
MS.356         	6.665          	0.151
MS.357         	6.652          	0.338
MS.358         	6.64           	0.304
MS.359         	6.625          	0.23
MS.360         	6.612          	0.107
MS.361         	6.6            	0.417
MS.362         	6.585          	0.139
MS.363         	6.572          	0.224
MS.364         	6.56           	0.179
MS.365         	6.547          	0.177
MS.366         	6.532          	0.105
MS.367         	6.52           	0.107
MS.368         	6.507          	0.135
MS.369         	6.495          	0.066
MS.370         	6.483          	0.109
MS.371         	6.467          	0.119
MS.372         	6.455          	0.117
MS.373         	6.442          	0.07
MS.374         	6.43           	0.075
MS.375         	6.418          	0.095
MS.376         	6.405          	0.077
MS.377         	6.392          	0.077
MS.378         	6.378          	0.062
MS.379         	6.365          	0.066
MS.380         	6.352          	0.077
MS.381         	6.34           	0.038
MS.382         	6.327          	0.079
MS.383         	6.315          	0.034
MS.384         	6.302          	0.034
MS.385         	6.29           	0.036
MS.386         	6.277          	0.046
MS.387         	6.265          	0.075
MS.388         	6.253          	0.036
MS.389         	6.24           	0.036
MS.390         	6.227          	0.044
MS.391         	6.215          	0.04
MS.392         	6.202          	0.044
MS.393         	6.19           	0.04
MS.394         	6.177          	0.04
MS.395         	6.165          	0.052
MS.396         	6.152          	0.026
MS.397         	6.14           	0.044
MS.398         	6.128          	0.026
MS.399         	6.115          	0.028
MS.400         	6.105          	0.026
MS.401         	6.092          	0.022
MS.402         	6.08           	0.028
MS.403         	6.067          	0.034
MS.404         	6.055          	0.032
MS.405         	6.043          	0.03
MS.406         	6.03           	0.038
MS.407         	6.02           	0.032
MS.408         	6.007          	0.04
MS.409         	5.995          	0.044
MS.410         	5.983          	0.028
MS.411         	5.97           	0.02
MS.412         	5.96           	0.038
MS.413         	5.947          	0.058
MS.414         	5.935          	0.048
MS.415         	5.922          	0.042
MS.416         	5.912          	0.022
MS.417         	5.9            	-0.004
MS.418         	5.887          	0.022
MS.419         	5.878          	0.04
MS.420         	5.865          	0.024
MS.421         	5.852          	0.000
MS.422         	5.842          	0.026
MS.423         	5.83           	-0.006
MS.424         	5.817          	0.028
MS.425         	5.807          	0.000
MS.426         	5.795          	0.004
MS.427         	5.782          	0.000
MS.428         	5.773          	-0.002
MS.429         	5.76           	0.002
MS.430         	5.747          	0.028
MS.431         	5.737          	0.002
MS.432         	5.725          	0.05
MS.433         	5.715          	0.000
MS.434         	5.702          	0.000
MS.435         	5.692          	0.026
MS.436         	5.68           	0.000
MS.437         	5.668          	0.000
MS.438         	5.657          	0.000
MS.439         	5.645          	0.000
MS.440         	5.635          	-0.002
MS.441         	5.622          	0.002
MS.442         	5.612          	-0.002
MS.443         	5.6            	-0.002
MS.444         	5.59           	0.002
MS.445         	5.577          	0.000
MS.446         	5.567          	-0.002
MS.447         	5.557          	0.000
MS.448         	5.545          	-0.002
MS.449         	5.535          	-0.002
MS.450         	5.523          	-0.002
MS.451         	5.512          	-0.002
MS.452         	5.5            	-0.004
MS.453         	5.49           	0.000
MS.454         	5.48           	0.000
MS.455         	5.467          	0.000
MS.456         	5.457          	-0.002
MS.457         	5.447          	-0.004
MS.458         	5.435          	0.002
MS.459         	5.425          	0.000
MS.460         	5.415          	0.000
MS.461         	5.402          	0.000
MS.462         	5.392          	0.002
MS.463         	5.382          	0.004
MS.464         	5.37           	-0.004
MS.465         	5.36           	0.002
MS.466         	5.35           	-0.002
MS.467         	5.338          	0.000
DERIVED EXCITABILITY VARIABLES
Program = QTracP 3/4/2020
Threshold method = 6 (optimised for CAP, using data for present condition only)
SR method = 1 (using actual data values)
6.                 	0.000               	Peak response\(mV)
9.                 	33.8                	Temperature ( C)
17.                	44                  	Age (years)
18.                	2                   	Sex (M=1, F=2)

EXTRA VARIABLES

MScPeak(mV) = 12.36
MScS5(mA) = 6.98
MScS50(mA) = 8.53
MScS95(mA) = 9.9
MScNSteps = 5
MScSteps(%) = 13.8
MScStepMax(%) = 3.1
MScD50 = 33
MScSlope = 6.47
MSFPeakAmp(mV) = 12.4
MSFNUnits = 157
MSFMeanUnitAmp(uV) = 78.9
MSFHuntTime(m) = 2.18
MSFError(%) = 5.33
MSFNLarge = 40.82
MSFMedianAmp(%) = 0.475
MSFMedianAmp(mV) = 0.0588
MSFHalfAmpAmp(%) = 0.73
MSFHalfAmpAmp(mV) = 0.0905
MSFLargestAmp(%) = 3.2
MSFLargestAmp(mV) = 0.396
MSFMeanRS(%) = 2
MSFOpts = 10106121
MScDuration(min) = 4.2
MSFTraces = 357
MSFSizeLimit(uV) = 31
MSFLimitType = 1
MSFSmallestAmp(uV) = 31.2

EXTRA WAVEFORMS


!MScan Model
!157
	1	5.93	0.25	2
	2	6.37	0.32	2
	3	6.47	0.36	2
	4	6.56	0.52	2
	5	6.68	0.85	2
	6	6.74	0.33	2
	7	6.78	0.27	2
	8	6.84	0.51	2
	9	6.88	0.33	2
	10	6.91	0.29	2
	11	6.94	0.56	2
	12	6.97	0.33	2
	13	7	0.48	2
	14	7.02	0.29	2
	15	7.03	0.32	2
	16	7.05	0.43	2
	17	7.1	0.65	2
	18	7.12	0.42	2
	19	7.14	0.4	2
	20	7.16	0.34	2
	21	7.18	0.34	2
	22	7.2	0.28	2
	23	7.22	0.61	2
	24	7.25	0.3	2
	25	7.26	0.26	2
	26	7.28	0.28	2
	27	7.31	0.37	2
	28	7.32	0.3	2
	29	7.33	0.26	2
	30	7.35	0.26	2
	31	7.36	0.3	2
	32	7.37	0.31	2
	33	7.39	0.31	2
	34	7.4	0.28	2
	35	7.42	0.48	2
	36	7.44	0.45	2
	37	7.45	0.29	2
	38	7.46	0.26	2
	39	7.47	0.26	2
	40	7.48	0.25	2
	41	7.49	0.26	2
	42	7.5	0.27	2
	43	7.52	0.38	2
	44	7.53	0.27	2
	45	7.53	0.26	2
	46	7.54	0.25	2
	47	7.56	0.38	2
	48	7.57	0.4	2
	49	7.59	0.44	2
	50	7.6	0.35	2
	51	7.62	0.32	2
	52	7.63	0.32	2
	53	7.64	0.31	2
	54	7.66	0.38	2
	55	7.67	0.4	2
	56	7.69	0.32	2
	57	7.71	0.47	2
	58	7.74	0.8	2
	59	7.77	0.75	2
	60	7.81	0.95	2
	61	7.85	0.88	2
	62	7.87	0.48	2
	63	7.89	0.59	2
	64	7.91	0.93	2
	65	7.93	0.63	2
	66	7.94	0.38	2
	67	7.95	0.37	2
	68	7.96	0.42	2
	69	7.99	0.64	2
	70	8	0.51	2
	71	8.01	0.48	2
	72	8.02	0.73	2
	73	8.04	0.88	2
	74	8.06	0.34	2
	75	8.08	0.67	2
	76	8.09	0.63	2
	77	8.11	0.68	2
	78	8.13	0.82	2
	79	8.15	1.18	2
	80	8.17	0.58	2
	81	8.18	0.48	2
	82	8.19	0.4	2
	83	8.2	0.42	2
	84	8.23	0.59	2
	85	8.24	0.47	2
	86	8.25	0.45	2
	87	8.26	0.45	2
	88	8.27	0.46	2
	89	8.28	0.46	2
	90	8.29	0.45	2
	91	8.31	0.44	2
	92	8.32	0.46	2
	93	8.33	0.46	2
	94	8.34	0.46	2
	95	8.35	0.47	2
	96	8.36	0.46	2
	97	8.37	0.47	2
	98	8.39	0.48	2
	99	8.4	0.47	2
	100	8.41	0.47	2
	101	8.42	0.47	2
	102	8.43	0.44	2
	103	8.44	0.44	2
	104	8.45	0.49	2
	105	8.47	0.44	2
	106	8.48	0.51	2
	107	8.49	0.49	2
	108	8.5	0.47	2
	109	8.52	0.86	2
	110	8.55	0.88	2
	111	8.57	0.59	2
	112	8.59	0.7	2
	113	8.65	2.09	2
	114	8.7	1.01	2
	115	8.74	1.12	2
	116	8.78	1.39	2
	117	8.81	1.1	2
	118	8.84	1.18	2
	119	8.88	1.5	2
	120	8.92	1.58	2
	121	8.97	2.29	2
	122	9.04	3.2	2
	123	9.09	1.44	2
	124	9.13	1.79	2
	125	9.16	1.16	2
	126	9.19	1.4	2
	127	9.22	1.45	2
	128	9.26	2.04	2
	129	9.29	1.84	2
	130	9.32	0.98	2
	131	9.34	0.64	2
	132	9.35	1.02	2
	133	9.37	1.1	2
	134	9.39	0.68	2
	135	9.41	0.71	2
	136	9.42	0.54	2
	137	9.43	0.59	2
	138	9.44	0.48	2
	139	9.47	0.59	2
	140	9.48	0.58	2
	141	9.49	0.52	2
	142	9.52	0.95	2
	143	9.54	1.05	2
	144	9.57	0.84	2
	145	9.6	0.73	2
	146	9.62	0.69	2
	147	9.65	0.46	2
	148	9.67	0.41	2
	149	9.77	1.39	2
	150	9.86	0.91	2
	151	9.9	0.3	2
	152	9.93	0.35	2
	153	9.96	0.49	2
	154	10.02	0.87	2
	155	10.09	1.29	2
	156	10.23	0.9	2
	157	10.46	0.5	2

