File:              	C:\Qtrac\Data\Daniel M Sørensen\MScan multicentre study\Data from centres\Edmonton\Processed data\MSCC00930C.QZD
Name:              	CA.EDM.NC.9.1
Protocol:          	MSCAN-R2
Date:              	30/9/20
Start time:        	12:00:01
Age:               	23
Sex:               	F
Temperature:       	33.1
S/R sites:         	TA
NC/disease:        	NC
Operator:          	KJ
Comments:
M-SCAN DATA (9.2-2.8m)
Scanpts: 56, 64, 465, 472
Stim. (mA)     	Amp. (mV)
MS.1           	23.5           	7.374
MS.2           	23.5           	7.4
MS.3           	23.5           	7.406
MS.4           	23.5           	7.404
MS.5           	23.5           	7.398
MS.6           	23.5           	7.388
MS.7           	23.5           	7.406
MS.8           	23.5           	7.394
MS.9           	23.5           	7.4
MS.10          	23.5           	7.396
MS.11          	23.5           	7.402
MS.12          	23.5           	7.406
MS.13          	23.5           	7.422
MS.14          	23.5           	7.414
MS.15          	23.5           	7.42
MS.16          	23.5           	7.408
MS.17          	23.5           	7.408
MS.18          	23.5           	7.446
MS.19          	23.5           	7.426
MS.20          	23.5           	7.43
MS.21          	23.5           	7.444
MS.22          	23.5           	7.442
MS.23          	23.5           	7.432
MS.24          	23.405         	7.438
MS.25          	23.36          	7.442
MS.26          	23.312         	7.438
MS.27          	23.265         	7.428
MS.28          	23.22          	7.454
MS.29          	23.172         	7.446
MS.30          	23.127         	7.452
MS.31          	23.08          	7.462
MS.32          	23.035         	7.462
MS.33          	22.987         	7.462
MS.34          	22.942         	7.473
MS.35          	22.897         	7.477
MS.36          	22.85          	7.475
MS.37          	22.805         	7.462
MS.38          	22.76          	7.481
MS.39          	22.715         	7.479
MS.40          	22.67          	7.481
MS.41          	22.622         	7.446
MS.42          	22.577         	7.491
MS.43          	22.532         	7.493
MS.44          	22.487         	7.503
MS.45          	22.442         	7.471
MS.46          	22.397         	7.493
MS.47          	22.355         	7.501
MS.48          	22.31          	7.495
MS.49          	22.265         	7.483
MS.50          	22.22          	7.519
MS.51          	22.175         	7.497
MS.52          	22.132         	7.495
MS.53          	22.087         	7.483
MS.54          	22.042         	7.505
MS.55          	22             	7.513
MS.56          	21.955         	7.491
MS.57          	21.91          	7.533
MS.58          	21.868         	7.509
MS.59          	21.823         	7.529
MS.60          	21.78          	7.511
MS.61          	21.737         	7.527
MS.62          	21.692         	7.541
MS.63          	21.65          	7.505
MS.64          	21.608         	7.547
MS.65          	21.562         	7.497
MS.66          	21.52          	7.519
MS.67          	21.477         	7.503
MS.68          	21.435         	7.559
MS.69          	21.392         	7.497
MS.70          	21.35          	7.497
MS.71          	21.305         	7.503
MS.72          	21.262         	7.517
MS.73          	21.22          	7.495
MS.74          	21.177         	7.563
MS.75          	21.137         	7.511
MS.76          	21.095         	7.549
MS.77          	21.052         	7.517
MS.78          	21.01          	7.547
MS.79          	20.967         	7.551
MS.80          	20.925         	7.469
MS.81          	20.885         	7.527
MS.82          	20.842         	7.577
MS.83          	20.8           	7.456
MS.84          	20.76          	7.545
MS.85          	20.717         	7.446
MS.86          	20.677         	7.557
MS.87          	20.635         	7.452
MS.88          	20.595         	7.452
MS.89          	20.552         	7.521
MS.90          	20.512         	7.454
MS.91          	20.47          	7.485
MS.92          	20.43          	7.537
MS.93          	20.39          	7.46
MS.94          	20.347         	7.553
MS.95          	20.307         	7.44
MS.96          	20.267         	7.464
MS.97          	20.227         	7.469
MS.98          	20.185         	7.561
MS.99          	20.145         	7.541
MS.100         	20.105         	7.559
MS.101         	20.065         	7.479
MS.102         	20.025         	7.483
MS.103         	19.985         	7.475
MS.104         	19.945         	7.471
MS.105         	19.905         	7.396
MS.106         	19.865         	7.452
MS.107         	19.825         	7.402
MS.108         	19.788         	7.412
MS.109         	19.747         	7.396
MS.110         	19.708         	7.414
MS.111         	19.667         	7.469
MS.112         	19.63          	7.408
MS.113         	19.59          	7.38
MS.114         	19.55          	7.404
MS.115         	19.512         	7.406
MS.116         	19.472         	7.394
MS.117         	19.432         	7.366
MS.118         	19.395         	7.392
MS.119         	19.355         	7.348
MS.120         	19.317         	7.4
MS.121         	19.278         	7.39
MS.122         	19.24          	7.408
MS.123         	19.202         	7.39
MS.124         	19.163         	7.404
MS.125         	19.125         	7.408
MS.126         	19.087         	7.356
MS.127         	19.047         	7.388
MS.128         	19.01          	7.432
MS.129         	18.972         	7.404
MS.130         	18.935         	7.356
MS.131         	18.897         	7.356
MS.132         	18.86          	7.376
MS.133         	18.823         	7.4
MS.134         	18.785         	7.325
MS.135         	18.747         	7.348
MS.136         	18.71          	7.396
MS.137         	18.672         	7.372
MS.138         	18.635         	7.36
MS.139         	18.597         	7.285
MS.140         	18.56          	7.291
MS.141         	18.522         	7.36
MS.142         	18.485         	7.352
MS.143         	18.448         	7.368
MS.144         	18.413         	7.235
MS.145         	18.375         	7.267
MS.146         	18.337         	7.277
MS.147         	18.302         	7.275
MS.148         	18.265         	7.332
MS.149         	18.227         	7.257
MS.150         	18.192         	7.344
MS.151         	18.155         	7.249
MS.152         	18.12          	7.243
MS.153         	18.083         	7.295
MS.154         	18.047         	7.164
MS.155         	18.01          	7.265
MS.156         	17.975         	7.122
MS.157         	17.94          	7.209
MS.158         	17.903         	7.158
MS.159         	17.868         	7.001
MS.160         	17.833         	7.158
MS.161         	17.797         	6.834
MS.162         	17.76          	6.915
MS.163         	17.725         	6.854
MS.164         	17.69          	6.915
MS.165         	17.655         	7.086
MS.166         	17.62          	6.882
MS.167         	17.585         	6.856
MS.168         	17.55          	6.973
MS.169         	17.515         	6.967
MS.170         	17.48          	6.933
MS.171         	17.445         	6.792
MS.172         	17.41          	6.878
MS.173         	17.375         	6.812
MS.174         	17.34          	6.768
MS.175         	17.305         	6.832
MS.176         	17.27          	6.774
MS.177         	17.235         	6.766
MS.178         	17.202         	6.711
MS.179         	17.167         	6.747
MS.180         	17.132         	6.637
MS.181         	17.097         	6.78
MS.182         	17.065         	6.697
MS.183         	17.03          	6.691
MS.184         	16.997         	6.739
MS.185         	16.962         	6.683
MS.186         	16.927         	6.713
MS.187         	16.895         	6.713
MS.188         	16.86          	6.705
MS.189         	16.827         	6.683
MS.190         	16.792         	6.55
MS.191         	16.76          	6.544
MS.192         	16.727         	6.53
MS.193         	16.692         	6.514
MS.194         	16.66          	6.484
MS.195         	16.628         	6.461
MS.196         	16.592         	6.379
MS.197         	16.56          	6.399
MS.198         	16.528         	6.478
MS.199         	16.495         	6.403
MS.200         	16.46          	6.328
MS.201         	16.427         	6.266
MS.202         	16.395         	6.349
MS.203         	16.362         	6.232
MS.204         	16.33          	6.165
MS.205         	16.297         	6.133
MS.206         	16.265         	6.177
MS.207         	16.233         	6.155
MS.208         	16.2           	6.075
MS.209         	16.167         	6.123
MS.210         	16.135         	6.165
MS.211         	16.102         	6.055
MS.212         	16.07          	6.163
MS.213         	16.038         	6.057
MS.214         	16.007         	5.998
MS.215         	15.975         	6.018
MS.216         	15.943         	6.02
MS.217         	15.91          	6.057
MS.218         	15.88          	5.809
MS.219         	15.847         	5.938
MS.220         	15.815         	5.956
MS.221         	15.785         	5.918
MS.222         	15.752         	5.863
MS.223         	15.72          	5.787
MS.224         	15.69          	5.835
MS.225         	15.657         	5.698
MS.226         	15.627         	5.66
MS.227         	15.595         	5.748
MS.228         	15.565         	5.595
MS.229         	15.532         	5.609
MS.230         	15.502         	5.509
MS.231         	15.472         	5.549
MS.232         	15.44          	5.499
MS.233         	15.41          	5.412
MS.234         	15.38          	5.346
MS.235         	15.347         	5.348
MS.236         	15.318         	5.225
MS.237         	15.287         	5.275
MS.238         	15.257         	5.122
MS.239         	15.225         	5.235
MS.240         	15.195         	5.219
MS.241         	15.165         	5.124
MS.242         	15.135         	5.084
MS.243         	15.105         	5.108
MS.244         	15.075         	5.178
MS.245         	15.045         	5.029
MS.246         	15.015         	4.991
MS.247         	14.985         	4.917
MS.248         	14.955         	4.906
MS.249         	14.925         	4.943
MS.250         	14.895         	4.983
MS.251         	14.865         	4.824
MS.252         	14.835         	4.796
MS.253         	14.805         	4.763
MS.254         	14.775         	4.669
MS.255         	14.747         	4.804
MS.256         	14.717         	4.635
MS.257         	14.688         	4.602
MS.258         	14.657         	4.385
MS.259         	14.63          	4.514
MS.260         	14.6           	4.52
MS.261         	14.57          	4.433
MS.262         	14.542         	4.238
MS.263         	14.512         	4.336
MS.264         	14.483         	4.032
MS.265         	14.455         	4.252
MS.266         	14.425         	4.099
MS.267         	14.398         	4.115
MS.268         	14.367         	3.964
MS.269         	14.34          	4.087
MS.270         	14.31          	3.865
MS.271         	14.282         	3.851
MS.272         	14.252         	3.901
MS.273         	14.225         	3.66
MS.274         	14.197         	3.674
MS.275         	14.167         	3.595
MS.276         	14.14          	3.63
MS.277         	14.112         	3.535
MS.278         	14.082         	3.581
MS.279         	14.055         	3.37
MS.280         	14.028         	3.36
MS.281         	14             	3.293
MS.282         	13.97          	3.325
MS.283         	13.943         	3.207
MS.284         	13.915         	3.245
MS.285         	13.887         	3.309
MS.286         	13.86          	3.19
MS.287         	13.832         	3.176
MS.288         	13.805         	3.098
MS.289         	13.778         	2.945
MS.290         	13.75          	3.098
MS.291         	13.722         	2.848
MS.292         	13.695         	2.949
MS.293         	13.667         	2.798
MS.294         	13.64          	2.685
MS.295         	13.612         	2.711
MS.296         	13.585         	2.733
MS.297         	13.557         	2.622
MS.298         	13.53          	2.661
MS.299         	13.505         	2.485
MS.300         	13.477         	2.326
MS.301         	13.45          	2.318
MS.302         	13.422         	2.288
MS.303         	13.398         	2.316
MS.304         	13.37          	2.208
MS.305         	13.342         	2.181
MS.306         	13.318         	2.165
MS.307         	13.29          	2.159
MS.308         	13.262         	2.139
MS.309         	13.237         	2.071
MS.310         	13.21          	2.044
MS.311         	13.185         	1.952
MS.312         	13.157         	1.942
MS.313         	13.132         	2.016
MS.314         	13.105         	2.054
MS.315         	13.08          	1.815
MS.316         	13.052         	1.821
MS.317         	13.028         	1.823
MS.318         	13             	1.869
MS.319         	12.975         	1.833
MS.320         	12.947         	1.811
MS.321         	12.922         	1.857
MS.322         	12.898         	1.817
MS.323         	12.87          	1.853
MS.324         	12.845         	1.738
MS.325         	12.82          	1.696
MS.326         	12.795         	1.66
MS.327         	12.767         	1.575
MS.328         	12.742         	1.505
MS.329         	12.717         	1.549
MS.330         	12.693         	1.454
MS.331         	12.667         	1.418
MS.332         	12.642         	1.48
MS.333         	12.617         	1.281
MS.334         	12.59          	1.172
MS.335         	12.565         	1.261
MS.336         	12.54          	1.202
MS.337         	12.515         	1.215
MS.338         	12.49          	1.235
MS.339         	12.465         	1.194
MS.340         	12.44          	1.005
MS.341         	12.415         	1.09
MS.342         	12.392         	1.047
MS.343         	12.367         	1.035
MS.344         	12.342         	0.981
MS.345         	12.318         	1.011
MS.346         	12.292         	0.876
MS.347         	12.267         	0.935
MS.348         	12.242         	0.924
MS.349         	12.22          	0.983
MS.350         	12.195         	0.882
MS.351         	12.17          	0.979
MS.352         	12.145         	0.997
MS.353         	12.122         	0.979
MS.354         	12.097         	0.894
MS.355         	12.072         	0.943
MS.356         	12.05          	0.858
MS.357         	12.025         	0.804
MS.358         	12             	0.773
MS.359         	11.977         	0.761
MS.360         	11.952         	0.703
MS.361         	11.93          	0.693
MS.362         	11.905         	0.643
MS.363         	11.882         	0.59
MS.364         	11.858         	0.55
MS.365         	11.835         	0.556
MS.366         	11.81          	0.53
MS.367         	11.787         	0.514
MS.368         	11.762         	0.52
MS.369         	11.74          	0.586
MS.370         	11.717         	0.502
MS.371         	11.693         	0.514
MS.372         	11.67          	0.443
MS.373         	11.648         	0.431
MS.374         	11.622         	0.431
MS.375         	11.6           	0.395
MS.376         	11.577         	0.427
MS.377         	11.552         	0.387
MS.378         	11.53          	0.359
MS.379         	11.507         	0.322
MS.380         	11.485         	0.385
MS.381         	11.462         	0.342
MS.382         	11.438         	0.348
MS.383         	11.415         	0.33
MS.384         	11.392         	0.326
MS.385         	11.37          	0.332
MS.386         	11.347         	0.294
MS.387         	11.325         	0.334
MS.388         	11.302         	0.294
MS.389         	11.28          	0.318
MS.390         	11.257         	0.284
MS.391         	11.235         	0.316
MS.392         	11.212         	0.28
MS.393         	11.19          	0.268
MS.394         	11.167         	0.276
MS.395         	11.145         	0.29
MS.396         	11.122         	0.238
MS.397         	11.1           	0.254
MS.398         	11.077         	0.25
MS.399         	11.055         	0.242
MS.400         	11.035         	0.228
MS.401         	11.012         	0.205
MS.402         	10.99          	0.209
MS.403         	10.967         	0.183
MS.404         	10.945         	0.179
MS.405         	10.925         	0.157
MS.406         	10.903         	0.185
MS.407         	10.88          	0.157
MS.408         	10.86          	0.167
MS.409         	10.837         	0.173
MS.410         	10.815         	0.151
MS.411         	10.795         	0.133
MS.412         	10.773         	0.135
MS.413         	10.75          	0.147
MS.414         	10.73          	0.145
MS.415         	10.707         	0.123
MS.416         	10.688         	0.147
MS.417         	10.665         	0.131
MS.418         	10.645         	0.115
MS.419         	10.622         	0.139
MS.420         	10.602         	0.121
MS.421         	10.58          	0.131
MS.422         	10.56          	0.119
MS.423         	10.537         	0.131
MS.424         	10.517         	0.119
MS.425         	10.495         	0.127
MS.426         	10.475         	0.115
MS.427         	10.455         	0.107
MS.428         	10.432         	0.105
MS.429         	10.412         	0.077
MS.430         	10.392         	0.085
MS.431         	10.37          	0.117
MS.432         	10.35          	0.103
MS.433         	10.33          	0.105
MS.434         	10.31          	0.089
MS.435         	10.287         	0.089
MS.436         	10.267         	0.083
MS.437         	10.247         	0.073
MS.438         	10.227         	0.068
MS.439         	10.205         	0.058
MS.440         	10.185         	0.066
MS.441         	10.165         	0.054
MS.442         	10.145         	0.048
MS.443         	10.125         	0.052
MS.444         	10.105         	0.044
MS.445         	10.085         	0.046
MS.446         	10.065         	0.036
MS.447         	10.045         	0.034
MS.448         	10.025         	0.03
MS.449         	10.005         	0.032
MS.450         	9.985          	0.05
MS.451         	9.965          	0.028
MS.452         	9.945          	0.034
MS.453         	9.925          	0.038
MS.454         	9.905          	0.026
MS.455         	9.885          	0.03
MS.456         	9.865          	0.024
MS.457         	9.845          	0.04
MS.458         	9.825          	0.028
MS.459         	9.805          	0.028
MS.460         	9.787          	0.022
MS.461         	9.767          	0.022
MS.462         	9.747          	0.054
MS.463         	9.727          	0.028
MS.464         	9.707          	0.034
MS.465         	9.69           	0.03
MS.466         	9.67           	0.03
MS.467         	9.65           	0.024
MS.468         	9.63           	0.022
MS.469         	9.613          	0.022
MS.470         	9.592          	0.026
MS.471         	9.573          	0.022
MS.472         	9.555          	0.024
MS.473         	9.535          	0.02
MS.474         	9.515          	0.018
MS.475         	9.497          	0.018
MS.476         	9.477          	0.024
MS.477         	9.46           	0.024
MS.478         	9.44           	0.016
MS.479         	9.422          	0.018
MS.480         	9.403          	0.016
MS.481         	9.385          	0.016
MS.482         	9.365          	0.024
MS.483         	9.347          	0.016
MS.484         	9.327          	0.014
MS.485         	9.31           	0.016
MS.486         	9.29           	0.016
MS.487         	9.273          	0.02
MS.488         	9.252          	0.02
MS.489         	9.235          	0.018
MS.490         	9.217          	0.014
MS.491         	9.198          	0.02
MS.492         	9.18           	0.016
MS.493         	9.162          	0.018
MS.494         	9.142          	0.016
MS.495         	9.125          	0.016
MS.496         	9.108          	0.016
MS.497         	9.087          	0.014
MS.498         	9.07           	0.018
MS.499         	9.052          	0.016
MS.500         	9.035          	0.018
MS.501         	9.015          	0.016
MS.502         	8.997          	0.016
MS.503         	8.98           	0.014
MS.504         	8.962          	0.016
MS.505         	8.945          	0.014
MS.506         	8.925          	0.016
MS.507         	8.908          	0.016
MS.508         	8.89           	0.016
MS.509         	8.872          	0.016
MS.510         	8.855          	0.018
MS.511         	8.837          	0.016
MS.512         	8.82           	0.016
MS.513         	8.802          	0.016
MS.514         	8.785          	0.016
MS.515         	8.767          	0.016
MS.516         	8.75           	0.014
MS.517         	8.733          	0.016
MS.518         	8.715          	0.016
MS.519         	8.698          	0.016
MS.520         	8.68           	0.018
MS.521         	8.662          	0.016
MS.522         	8.645          	0.014
MS.523         	8.627          	0.018
MS.524         	8.61           	0.016
MS.525         	8.592          	0.016
MS.526         	8.575          	0.016
DERIVED EXCITABILITY VARIABLES
Program = QTracP 3/4/2020
Threshold method = 6 (optimised for CAP, using data for present condition only)
SR method = 1 (using actual data values)
6.                 	0.000               	Peak response\(mV)
9.                 	33.1                	Temperature ( C)
17.                	23                  	Age (years)
18.                	2                   	Sex (M=1, F=2)

EXTRA VARIABLES

MScPeak(mV) = 7.39
MScS5(mA) = 11.5
MScS50(mA) = 14.23
MScS95(mA) = 17.77
MScNSteps = 3
MScSteps(%) = 6.6
MScStepMax(%) = 2.4
MScD50 = 49
MScSlope = 5.62
MSFPeakAmp(mV) = 7.5
MSFNUnits = 178
MSFMeanUnitAmp(uV) = 42.1
MSFHuntTime(m) = 3.1
MSFError(%) = 3.98
MSFNLarge = 57.52
MSFMedianAmp(%) = 0.48
MSFMedianAmp(mV) = 0.036
MSFHalfAmpAmp(%) = 0.578
MSFHalfAmpAmp(mV) = 0.0434
MSFLargestAmp(%) = 3.32
MSFLargestAmp(mV) = 0.249
MSFMeanRS(%) = 2
MSFOpts = 10106121
MScDuration(min) = 6.4
MSFTraces = 417
MSFSizeLimit(uV) = 18.7
MSFLimitType = 1
MSFSmallestAmp(uV) = 19.1

EXTRA WAVEFORMS


!MScan Model
!178
	1	10.2	0.48	2
	2	10.34	0.32	2
	3	10.5	0.31	2
	4	10.69	0.3	2
	5	10.83	0.34	2
	6	10.91	0.28	2
	7	10.97	0.26	2
	8	11.04	0.33	2
	9	11.12	0.41	2
	10	11.21	0.36	2
	11	11.33	0.49	2
	12	11.42	0.32	2
	13	11.49	0.4	2
	14	11.53	0.27	2
	15	11.58	0.27	2
	16	11.62	0.36	2
	17	11.67	0.36	2
	18	11.71	0.39	2
	19	11.75	0.37	2
	20	11.78	0.27	2
	21	11.8	0.33	2
	22	11.83	0.57	2
	23	11.86	0.3	2
	24	11.89	0.42	2
	25	11.92	0.37	2
	26	11.95	0.35	2
	27	12	0.78	2
	28	12.09	1.48	2
	29	12.25	1.18	2
	30	12.33	0.76	2
	31	12.39	0.71	2
	32	12.42	0.32	2
	33	12.46	0.57	2
	34	12.48	0.4	2
	35	12.51	0.39	2
	36	12.53	0.37	2
	37	12.55	0.43	2
	38	12.57	0.47	2
	39	12.59	0.41	2
	40	12.62	0.45	2
	41	12.64	0.45	2
	42	12.66	0.41	2
	43	12.68	0.44	2
	44	12.7	0.48	2
	45	12.74	0.78	2
	46	12.79	1.19	2
	47	12.84	0.75	2
	48	12.92	1.3	2
	49	13	0.82	2
	50	13.06	0.76	2
	51	13.12	0.73	2
	52	13.17	0.57	2
	53	13.21	0.53	2
	54	13.24	0.52	2
	55	13.26	0.26	2
	56	13.28	0.26	2
	57	13.29	0.27	2
	58	13.31	0.31	2
	59	13.33	0.43	2
	60	13.34	0.56	2
	61	13.37	0.58	2
	62	13.39	0.38	2
	63	13.41	0.39	2
	64	13.42	0.31	2
	65	13.44	0.34	2
	66	13.46	0.43	2
	67	13.48	0.4	2
	68	13.49	0.45	2
	69	13.51	0.47	2
	70	13.53	0.49	2
	71	13.55	0.57	2
	72	13.56	0.47	2
	73	13.58	0.33	2
	74	13.6	0.37	2
	75	13.62	0.46	2
	76	13.64	0.58	2
	77	13.66	0.53	2
	78	13.68	0.58	2
	79	13.7	0.66	2
	80	13.72	0.59	2
	81	13.75	0.45	2
	82	13.77	0.51	2
	83	13.8	0.63	2
	84	13.86	0.93	2
	85	13.89	0.8	2
	86	13.92	0.53	2
	87	13.95	0.56	2
	88	13.97	0.54	2
	89	13.97	0.46	2
	90	14	0.51	2
	91	14.02	0.53	2
	92	14.04	0.51	2
	93	14.06	0.42	2
	94	14.07	0.31	2
	95	14.09	0.33	2
	96	14.1	0.36	2
	97	14.12	0.31	2
	98	14.13	0.25	2
	99	14.15	0.34	2
	100	14.16	0.4	2
	101	14.18	0.37	2
	102	14.19	0.36	2
	103	14.21	0.38	2
	104	14.22	0.39	2
	105	14.24	0.58	2
	106	14.27	0.57	2
	107	14.29	0.53	2
	108	14.32	0.54	2
	109	14.34	0.6	2
	110	14.37	0.79	2
	111	14.4	0.76	2
	112	14.43	0.91	2
	113	14.47	0.8	2
	114	14.5	0.77	2
	115	14.53	0.69	2
	116	14.55	0.56	2
	117	14.58	0.56	2
	118	14.61	0.61	2
	119	14.64	0.67	2
	120	14.67	0.75	2
	121	14.7	0.72	2
	122	14.73	0.63	2
	123	14.77	0.65	2
	124	14.8	0.69	2
	125	14.84	0.67	2
	126	14.88	0.56	2
	127	14.91	0.65	2
	128	14.96	0.79	2
	129	15.01	0.82	2
	130	15.06	0.57	2
	131	15.09	0.39	2
	132	15.12	0.41	2
	133	15.15	0.51	2
	134	15.18	0.47	2
	135	15.21	0.43	2
	136	15.24	0.36	2
	137	15.26	0.3	2
	138	15.28	0.28	2
	139	15.3	0.31	2
	140	15.32	0.33	2
	141	15.34	0.35	2
	142	15.36	0.33	2
	143	15.38	0.32	2
	144	15.4	0.41	2
	145	15.44	0.45	2
	146	15.48	0.49	2
	147	15.49	0.41	2
	148	15.51	0.38	2
	149	15.53	0.36	2
	150	15.57	0.63	2
	151	15.6	0.61	2
	152	15.63	0.5	2
	153	15.67	0.59	2
	154	15.73	0.8	2
	155	15.78	0.65	2
	156	15.84	0.72	2
	157	15.93	1.02	2
	158	16.04	0.94	2
	159	16.16	0.9	2
	160	16.24	0.73	2
	161	16.3	0.7	2
	162	16.34	0.41	2
	163	16.42	0.47	2
	164	16.46	0.45	2
	165	16.5	0.44	2
	166	16.54	0.5	2
	167	16.58	0.58	2
	168	16.62	0.5	2
	169	16.68	0.63	2
	170	16.73	0.47	2
	171	16.79	0.47	2
	172	16.89	0.84	2
	173	17.18	1.47	2
	174	17.51	1.56	2
	175	17.84	3.32	2
	176	18.28	1.85	2
	177	19.55	1.17	2
	178	19.87	1.05	2

