File:              	C:\Qtrac\Data\Daniel M Sørensen\MScan multicentre study\Data from centres\Edmonton\Processed data\MSCC01013C.QZD
Name:              	CA.EDM.NC.9.2
Protocol:          	MSCAN-R2
Date:              	13/10/20
Start time:        	09:49:06
Age:               	23
Sex:               	F
Temperature:       	32.0
S/R sites:         	ADM
NC/disease:        	NC
Operator:          	KJ
Comments:
M-SCAN DATA (Repeat 2/2, 14.7-8.3m)
Scanpts: 41, 47, 479, 489
Stim. (mA)     	Amp. (mV)
MS.1           	30             	10.252
MS.2           	30             	10.252
MS.3           	30             	10.23
MS.4           	30             	10.212
MS.5           	30             	10.288
MS.6           	30             	10.258
MS.7           	30             	10.3
MS.8           	30             	10.302
MS.9           	30             	10.345
MS.10          	30             	10.351
MS.11          	30             	10.341
MS.12          	30             	10.306
MS.13          	30             	10.296
MS.14          	30             	10.286
MS.15          	30             	10.284
MS.16          	30             	10.312
MS.17          	30             	10.264
MS.18          	30             	10.284
MS.19          	30             	10.266
MS.20          	30             	10.341
MS.21          	30             	10.294
MS.22          	30             	10.312
MS.23          	30             	10.317
MS.24          	29.88          	10.276
MS.25          	29.82          	10.304
MS.26          	29.76          	10.26
MS.27          	29.702         	10.375
MS.28          	29.642         	10.308
MS.29          	29.582         	10.294
MS.30          	29.525         	10.292
MS.31          	29.465         	10.31
MS.32          	29.405         	10.333
MS.33          	29.347         	10.274
MS.34          	29.287         	10.24
MS.35          	29.23          	10.286
MS.36          	29.172         	10.248
MS.37          	29.112         	10.296
MS.38          	29.055         	10.25
MS.39          	28.997         	10.214
MS.40          	28.94          	10.254
MS.41          	28.882         	10.244
MS.42          	28.823         	10.262
MS.43          	28.765         	10.292
MS.44          	28.707         	10.222
MS.45          	28.653         	10.248
MS.46          	28.595         	10.274
MS.47          	28.537         	10.216
MS.48          	28.48          	10.262
MS.49          	28.422         	10.264
MS.50          	28.365         	10.262
MS.51          	28.31          	10.23
MS.52          	28.252         	10.216
MS.53          	28.198         	10.174
MS.54          	28.14          	10.246
MS.55          	28.085         	10.258
MS.56          	28.028         	10.3
MS.57          	27.972         	10.222
MS.58          	27.915         	10.266
MS.59          	27.86          	10.252
MS.60          	27.805         	10.212
MS.61          	27.75          	10.242
MS.62          	27.692         	10.232
MS.63          	27.637         	10.228
MS.64          	27.582         	10.19
MS.65          	27.528         	10.063
MS.66          	27.472         	10.292
MS.67          	27.417         	10.18
MS.68          	27.362         	10.035
MS.69          	27.307         	10.022
MS.70          	27.255         	10.067
MS.71          	27.2           	10.264
MS.72          	27.145         	10.069
MS.73          	27.09          	10.006
MS.74          	27.037         	10.029
MS.75          	26.983         	9.974
MS.76          	26.93          	9.954
MS.77          	26.875         	9.958
MS.78          	26.823         	10.035
MS.79          	26.767         	10.016
MS.80          	26.715         	9.99
MS.81          	26.66          	9.962
MS.82          	26.608         	9.964
MS.83          	26.555         	9.968
MS.84          	26.502         	9.942
MS.85          	26.448         	9.968
MS.86          	26.395         	10.004
MS.87          	26.342         	10.004
MS.88          	26.29          	10.012
MS.89          	26.237         	10.039
MS.90          	26.185         	10.105
MS.91          	26.132         	10.067
MS.92          	26.08          	10.01
MS.93          	26.028         	10.077
MS.94          	25.977         	10.037
MS.95          	25.925         	10.133
MS.96          	25.872         	9.98
MS.97          	25.82          	10.123
MS.98          	25.77          	10.149
MS.99          	25.717         	9.974
MS.100         	25.667         	9.986
MS.101         	25.615         	10.012
MS.102         	25.565         	9.984
MS.103         	25.512         	10.067
MS.104         	25.462         	9.918
MS.105         	25.413         	10.026
MS.106         	25.36          	9.96
MS.107         	25.31          	9.966
MS.108         	25.26          	10.024
MS.109         	25.21          	10.002
MS.110         	25.157         	10.075
MS.111         	25.108         	10.002
MS.112         	25.057         	9.986
MS.113         	25.007         	9.918
MS.114         	24.957         	10.113
MS.115         	24.907         	9.946
MS.116         	24.858         	9.851
MS.117         	24.81          	10.008
MS.118         	24.76          	9.922
MS.119         	24.71          	9.867
MS.120         	24.66          	9.968
MS.121         	24.61          	9.881
MS.122         	24.562         	9.825
MS.123         	24.512         	9.898
MS.124         	24.465         	9.954
MS.125         	24.415         	9.89
MS.126         	24.365         	9.954
MS.127         	24.317         	9.865
MS.128         	24.27          	9.879
MS.129         	24.22          	9.837
MS.130         	24.172         	9.93
MS.131         	24.125         	9.877
MS.132         	24.075         	9.763
MS.133         	24.028         	9.553
MS.134         	23.98          	9.759
MS.135         	23.932         	9.529
MS.136         	23.882         	9.69
MS.137         	23.835         	9.535
MS.138         	23.788         	9.716
MS.139         	23.74          	9.666
MS.140         	23.692         	9.463
MS.141         	23.645         	9.275
MS.142         	23.6           	9.416
MS.143         	23.552         	9.219
MS.144         	23.505         	9.404
MS.145         	23.457         	9.199
MS.146         	23.41          	9.267
MS.147         	23.365         	9.239
MS.148         	23.317         	9.446
MS.149         	23.27          	9.36
MS.150         	23.225         	9.336
MS.151         	23.177         	9.215
MS.152         	23.132         	9.005
MS.153         	23.085         	9.019
MS.154         	23.04          	8.965
MS.155         	22.993         	9.007
MS.156         	22.948         	9.08
MS.157         	22.903         	9.118
MS.158         	22.855         	8.85
MS.159         	22.81          	8.754
MS.160         	22.765         	9.013
MS.161         	22.72          	8.653
MS.162         	22.672         	8.633
MS.163         	22.627         	8.79
MS.164         	22.582         	8.713
MS.165         	22.538         	8.258
MS.166         	22.493         	8.498
MS.167         	22.448         	8.268
MS.168         	22.403         	8.435
MS.169         	22.358         	8.169
MS.170         	22.312         	8.135
MS.171         	22.27          	8.153
MS.172         	22.225         	8.099
MS.173         	22.18          	7.944
MS.174         	22.135         	7.904
MS.175         	22.092         	7.898
MS.176         	22.047         	7.883
MS.177         	22.002         	7.819
MS.178         	21.96          	7.622
MS.179         	21.915         	7.646
MS.180         	21.872         	7.668
MS.181         	21.827         	7.303
MS.182         	21.785         	7.513
MS.183         	21.74          	7.233
MS.184         	21.698         	7.118
MS.185         	21.655         	7.035
MS.186         	21.61          	7.158
MS.187         	21.567         	6.997
MS.188         	21.525         	6.874
MS.189         	21.483         	7.112
MS.190         	21.438         	7.015
MS.191         	21.395         	6.588
MS.192         	21.352         	6.516
MS.193         	21.31          	6.604
MS.194         	21.267         	6.681
MS.195         	21.225         	6.612
MS.196         	21.182         	6.502
MS.197         	21.14          	6.699
MS.198         	21.097         	6.175
MS.199         	21.057         	6.216
MS.200         	21.015         	6.308
MS.201         	20.972         	6.331
MS.202         	20.93          	6.151
MS.203         	20.887         	6.053
MS.204         	20.847         	5.813
MS.205         	20.805         	6.119
MS.206         	20.762         	5.881
MS.207         	20.722         	5.801
MS.208         	20.68          	5.585
MS.209         	20.64          	5.787
MS.210         	20.597         	5.91
MS.211         	20.557         	5.682
MS.212         	20.515         	5.519
MS.213         	20.475         	5.571
MS.214         	20.435         	5.605
MS.215         	20.392         	5.388
MS.216         	20.352         	5.418
MS.217         	20.312         	5.549
MS.218         	20.27          	5.14
MS.219         	20.23          	5.39
MS.220         	20.19          	5.126
MS.221         	20.15          	5.15
MS.222         	20.11          	5.031
MS.223         	20.07          	5.062
MS.224         	20.03          	5.052
MS.225         	19.99          	5.178
MS.226         	19.95          	4.896
MS.227         	19.91          	5.148
MS.228         	19.87          	4.62
MS.229         	19.83          	4.709
MS.230         	19.79          	4.512
MS.231         	19.75          	4.655
MS.232         	19.712         	4.606
MS.233         	19.672         	4.473
MS.234         	19.632         	4.254
MS.235         	19.592         	4.407
MS.236         	19.555         	4.057
MS.237         	19.515         	3.813
MS.238         	19.477         	3.938
MS.239         	19.438         	3.813
MS.240         	19.397         	4.016
MS.241         	19.36          	3.64
MS.242         	19.32          	3.45
MS.243         	19.282         	3.412
MS.244         	19.245         	3.615
MS.245         	19.205         	3.428
MS.246         	19.167         	3.271
MS.247         	19.13          	3.428
MS.248         	19.09          	3.414
MS.249         	19.052         	3.255
MS.250         	19.015         	3.108
MS.251         	18.977         	2.963
MS.252         	18.938         	2.91
MS.253         	18.9           	3.275
MS.254         	18.862         	2.773
MS.255         	18.825         	2.618
MS.256         	18.788         	2.89
MS.257         	18.75          	2.858
MS.258         	18.712         	2.53
MS.259         	18.675         	2.252
MS.260         	18.637         	2.54
MS.261         	18.6           	2.56
MS.262         	18.562         	2.31
MS.263         	18.528         	2.131
MS.264         	18.49          	1.992
MS.265         	18.452         	2.135
MS.266         	18.415         	2.016
MS.267         	18.38          	1.668
MS.268         	18.342         	2.125
MS.269         	18.305         	1.583
MS.270         	18.27          	1.644
MS.271         	18.233         	1.774
MS.272         	18.195         	1.762
MS.273         	18.16          	1.974
MS.274         	18.122         	1.327
MS.275         	18.087         	1.563
MS.276         	18.05          	1.347
MS.277         	18.015         	1.48
MS.278         	17.98          	1.384
MS.279         	17.942         	1.317
MS.280         	17.907         	1.108
MS.281         	17.872         	1.307
MS.282         	17.835         	1.072
MS.283         	17.8           	1.09
MS.284         	17.765         	1.051
MS.285         	17.73          	1.227
MS.286         	17.692         	1.068
MS.287         	17.657         	1.07
MS.288         	17.622         	1.055
MS.289         	17.587         	1.015
MS.290         	17.552         	0.894
MS.291         	17.517         	0.882
MS.292         	17.483         	0.945
MS.293         	17.448         	1.007
MS.294         	17.413         	0.848
MS.295         	17.378         	0.933
MS.296         	17.342         	0.866
MS.297         	17.307         	0.713
MS.298         	17.275         	0.632
MS.299         	17.24          	0.709
MS.300         	17.205         	0.518
MS.301         	17.17          	0.574
MS.302         	17.137         	0.622
MS.303         	17.102         	0.673
MS.304         	17.067         	0.5
MS.305         	17.035         	0.558
MS.306         	17             	0.435
MS.307         	16.965         	0.387
MS.308         	16.932         	0.483
MS.309         	16.897         	0.421
MS.310         	16.865         	0.377
MS.311         	16.83          	0.344
MS.312         	16.797         	0.451
MS.313         	16.762         	0.377
MS.314         	16.73          	0.324
MS.315         	16.698         	0.338
MS.316         	16.663         	0.346
MS.317         	16.63          	0.34
MS.318         	16.597         	0.3
MS.319         	16.562         	0.338
MS.320         	16.53          	0.232
MS.321         	16.497         	0.218
MS.322         	16.465         	0.328
MS.323         	16.432         	0.322
MS.324         	16.397         	0.332
MS.325         	16.365         	0.318
MS.326         	16.333         	0.232
MS.327         	16.3           	0.22
MS.328         	16.267         	0.216
MS.329         	16.235         	0.34
MS.330         	16.202         	0.32
MS.331         	16.17          	0.328
MS.332         	16.137         	0.316
MS.333         	16.105         	0.218
MS.334         	16.075         	0.236
MS.335         	16.042         	0.24
MS.336         	16.01          	0.34
MS.337         	15.977         	0.25
MS.338         	15.945         	0.26
MS.339         	15.915         	0.242
MS.340         	15.882         	0.22
MS.341         	15.85          	0.203
MS.342         	15.82          	0.22
MS.343         	15.787         	0.207
MS.344         	15.755         	0.203
MS.345         	15.725         	0.211
MS.346         	15.693         	0.218
MS.347         	15.662         	0.224
MS.348         	15.63          	0.22
MS.349         	15.6           	0.214
MS.350         	15.568         	0.228
MS.351         	15.537         	0.238
MS.352         	15.505         	0.226
MS.353         	15.475         	0.226
MS.354         	15.443         	0.218
MS.355         	15.412         	0.228
MS.356         	15.382         	0.232
MS.357         	15.352         	0.214
MS.358         	15.32          	0.232
MS.359         	15.29          	0.224
MS.360         	15.26          	0.224
MS.361         	15.23          	0.211
MS.362         	15.197         	0.224
MS.363         	15.167         	0.228
MS.364         	15.137         	0.224
MS.365         	15.108         	0.22
MS.366         	15.077         	0.232
MS.367         	15.047         	0.224
MS.368         	15.017         	0.226
MS.369         	14.987         	0.234
MS.370         	14.957         	0.232
MS.371         	14.927         	0.238
MS.372         	14.898         	0.232
MS.373         	14.867         	0.24
MS.374         	14.837         	0.203
MS.375         	14.807         	0.238
MS.376         	14.78          	0.226
MS.377         	14.75          	0.246
MS.378         	14.72          	0.228
MS.379         	14.69          	0.22
MS.380         	14.66          	0.238
MS.381         	14.632         	0.224
MS.382         	14.602         	0.228
MS.383         	14.572         	0.228
MS.384         	14.545         	0.224
MS.385         	14.515         	0.228
MS.386         	14.485         	0.207
MS.387         	14.457         	0.201
MS.388         	14.427         	0.23
MS.389         	14.4           	0.211
MS.390         	14.37          	0.211
MS.391         	14.342         	0.209
MS.392         	14.312         	0.209
MS.393         	14.285         	0.224
MS.394         	14.257         	0.214
MS.395         	14.227         	0.22
MS.396         	14.2           	0.232
MS.397         	14.17          	0.216
MS.398         	14.142         	0.226
MS.399         	14.115         	0.216
MS.400         	14.085         	0.214
MS.401         	14.057         	0.222
MS.402         	14.03          	0.232
MS.403         	14.002         	0.226
MS.404         	13.975         	0.24
MS.405         	13.945         	0.244
MS.406         	13.917         	0.238
MS.407         	13.89          	0.224
MS.408         	13.862         	0.232
MS.409         	13.835         	0.238
MS.410         	13.807         	0.238
MS.411         	13.78          	0.242
MS.412         	13.752         	0.24
MS.413         	13.725         	0.232
MS.414         	13.697         	0.24
MS.415         	13.67          	0.24
MS.416         	13.642         	0.242
MS.417         	13.615         	0.236
MS.418         	13.587         	0.236
MS.419         	13.56          	0.216
MS.420         	13.535         	0.24
MS.421         	13.507         	0.238
MS.422         	13.48          	0.238
MS.423         	13.452         	0.24
MS.424         	13.425         	0.236
MS.425         	13.4           	0.242
MS.426         	13.372         	0.236
MS.427         	13.345         	0.238
MS.428         	13.32          	0.236
MS.429         	13.292         	0.238
MS.430         	13.265         	0.24
MS.431         	13.24          	0.24
MS.432         	13.212         	0.238
MS.433         	13.188         	0.238
MS.434         	13.16          	0.24
MS.435         	13.135         	0.238
MS.436         	13.108         	0.24
MS.437         	13.082         	0.24
MS.438         	13.055         	0.24
MS.439         	13.03          	0.24
MS.440         	13.002         	0.236
MS.441         	12.977         	0.236
MS.442         	12.952         	0.238
MS.443         	12.925         	0.24
MS.444         	12.9           	0.234
MS.445         	12.875         	0.24
MS.446         	12.847         	0.236
MS.447         	12.822         	0.24
MS.448         	12.797         	0.238
MS.449         	12.773         	0.238
MS.450         	12.745         	0.238
MS.451         	12.72          	0.24
MS.452         	12.695         	0.242
MS.453         	12.67          	0.236
MS.454         	12.645         	0.236
MS.455         	12.62          	0.236
MS.456         	12.592         	0.238
MS.457         	12.568         	0.236
MS.458         	12.542         	0.24
MS.459         	12.517         	0.242
MS.460         	12.492         	0.232
MS.461         	12.467         	0.242
MS.462         	12.443         	0.234
MS.463         	12.417         	0.236
MS.464         	12.395         	0.161
MS.465         	12.37          	0.236
MS.466         	12.345         	0.161
MS.467         	12.32          	0.161
MS.468         	12.295         	0.171
MS.469         	12.27          	0.167
MS.470         	12.245         	0.167
MS.471         	12.222         	0.169
MS.472         	12.197         	0.161
MS.473         	12.172         	0.163
MS.474         	12.148         	0.165
MS.475         	12.125         	0.167
MS.476         	12.1           	0.161
MS.477         	12.075         	0.161
MS.478         	12.052         	0.165
MS.479         	12.028         	0.163
MS.480         	12.002         	0.165
MS.481         	11.98          	0.165
MS.482         	11.955         	0.161
MS.483         	11.932         	0.163
MS.484         	11.907         	0.161
MS.485         	11.885         	0.161
MS.486         	11.86          	0.163
MS.487         	11.837         	0.163
MS.488         	11.812         	0.161
MS.489         	11.79          	0.161
MS.490         	11.765         	0.163
MS.491         	11.742         	0.167
MS.492         	11.72          	0.165
MS.493         	11.695         	0.163
MS.494         	11.672         	0.165
MS.495         	11.648         	0.163
MS.496         	11.625         	0.161
MS.497         	11.602         	0.161
MS.498         	11.58          	0.163
MS.499         	11.555         	0.161
MS.500         	11.532         	0.163
MS.501         	11.51          	0.161
MS.502         	11.488         	0.157
MS.503         	11.465         	0.161
MS.504         	11.44          	0.165
MS.505         	11.417         	0.165
MS.506         	11.395         	0.161
MS.507         	11.372         	0.161
MS.508         	11.35          	0.159
MS.509         	11.327         	0.159
MS.510         	11.305         	0.161
MS.511         	11.282         	0.161
MS.512         	11.26          	0.161
MS.513         	11.238         	0.161
MS.514         	11.215         	0.159
MS.515         	11.193         	0.157
MS.516         	11.17          	0.153
MS.517         	11.148         	0.161
MS.518         	11.125         	0.155
MS.519         	11.102         	0.157
MS.520         	11.08          	0.151
MS.521         	11.057         	0.155
MS.522         	11.037         	0.153
MS.523         	11.015         	0.155
MS.524         	10.992         	0.157
MS.525         	10.97          	0.147
MS.526         	10.948         	0.151
MS.527         	10.927         	0.153
MS.528         	10.905         	0.149
MS.529         	10.882         	0.151
MS.530         	10.86          	0.155
MS.531         	10.84          	0.151
MS.532         	10.818         	0.151
MS.533         	10.795         	0.159
MS.534         	10.775         	0.151
MS.535         	10.752         	0.147
MS.536         	10.733         	0.155
MS.537         	10.71          	0.153
MS.538         	10.69          	0.151
MS.539         	10.667         	0.149
MS.540         	10.645         	0.149
MS.541         	10.625         	0.151
MS.542         	10.602         	0.153
MS.543         	10.582         	0.147
MS.544         	10.562         	0.151
MS.545         	10.54          	0.155
MS.546         	10.52          	0.153
MS.547         	10.497         	0.149
MS.548         	10.477         	0.153
MS.549         	10.455         	0.149
MS.550         	10.435         	0.147
MS.551         	10.415         	0.151
MS.552         	10.392         	0.151
MS.553         	10.372         	0.149
MS.554         	10.352         	0.151
MS.555         	10.332         	0.147
MS.556         	10.31          	0.145
MS.557         	10.29          	0.151
MS.558         	10.27          	0.155
MS.559         	10.25          	0.145
MS.560         	10.227         	0.153
MS.561         	10.207         	0.149
MS.562         	10.188         	0.145
MS.563         	10.167         	0.147
MS.564         	10.148         	0.147
MS.565         	10.127         	0.147
MS.566         	10.108         	0.145
MS.567         	10.087         	0.151
MS.568         	10.068         	0.149
MS.569         	10.045         	0.149
MS.570         	10.025         	0.149
MS.571         	10.005         	0.131
MS.572         	9.985          	0.149
MS.573         	9.965          	0.149
MS.574         	9.948          	0.149
MS.575         	9.927          	0.143
MS.576         	9.907          	0.147
MS.577         	9.887          	0.145
MS.578         	9.867          	0.143
MS.579         	9.847          	0.143
MS.580         	9.827          	0.145
MS.581         	9.807          	0.147
MS.582         	9.787          	0.141
MS.583         	9.77           	0.145
MS.584         	9.75           	0.141
MS.585         	9.73           	0.151
MS.586         	9.71           	0.143
MS.587         	9.69           	0.145
MS.588         	9.672          	0.151
MS.589         	9.653          	0.145
MS.590         	9.632          	0.145
MS.591         	9.615          	0.143
MS.592         	9.595          	0.139
MS.593         	9.575          	0.141
MS.594         	9.557          	0.135
MS.595         	9.537          	0.127
MS.596         	9.517          	0.143
MS.597         	9.5            	0.145
MS.598         	9.48           	0.141
MS.599         	9.46           	0.125
MS.600         	9.443          	0.143
MS.601         	9.422          	0.141
MS.602         	9.405          	0.143
MS.603         	9.385          	0.145
MS.604         	9.367          	0.143
MS.605         	9.347          	0.143
MS.606         	9.33           	0.143
MS.607         	9.31           	0.147
MS.608         	9.292          	0.145
MS.609         	9.275          	0.139
MS.610         	9.255          	0.149
MS.611         	9.238          	0.143
MS.612         	9.217          	0.143
MS.613         	9.2            	0.143
MS.614         	9.182          	0.141
MS.615         	9.162          	0.143
MS.616         	9.145          	0.145
MS.617         	9.127          	0.147
MS.618         	9.108          	0.129
MS.619         	9.09           	0.141
MS.620         	9.073          	0.139
MS.621         	9.055          	0.143
MS.622         	9.035          	0.125
MS.623         	9.017          	0.139
MS.624         	9              	0.141
MS.625         	8.983          	0.143
MS.626         	8.965          	0.129
MS.627         	8.945          	0.125
MS.628         	8.927          	0.137
MS.629         	8.91           	0.139
MS.630         	8.892          	0.119
MS.631         	8.875          	0.141
MS.632         	8.858          	0.139
MS.633         	8.84           	0.121
MS.634         	8.823          	0.139
MS.635         	8.805          	0.119
MS.636         	8.787          	0.123
MS.637         	8.77           	0.113
MS.638         	8.752          	0.121
MS.639         	8.735          	0.139
MS.640         	8.717          	0.111
MS.641         	8.7            	0.113
MS.642         	8.682          	0.123
MS.643         	8.665          	0.111
MS.644         	8.648          	0.115
MS.645         	8.63           	0.121
MS.646         	8.613          	0.119
MS.647         	8.595          	0.109
MS.648         	8.577          	0.115
MS.649         	8.56           	0.115
MS.650         	8.542          	0.109
MS.651         	8.528          	0.107
MS.652         	8.51           	0.113
MS.653         	8.492          	0.111
MS.654         	8.475          	0.123
MS.655         	8.457          	0.107
MS.656         	8.443          	0.121
MS.657         	8.425          	0.103
MS.658         	8.408          	0.113
MS.659         	8.392          	0.113
MS.660         	8.375          	0.115
MS.661         	8.358          	0.115
MS.662         	8.34           	0.109
MS.663         	8.325          	0.109
MS.664         	8.307          	0.109
MS.665         	8.29           	0.109
MS.666         	8.275          	0.111
MS.667         	8.257          	0.109
MS.668         	8.242          	0.109
MS.669         	8.225          	0.107
MS.670         	8.207          	0.111
MS.671         	8.193          	0.109
MS.672         	8.175          	0.107
MS.673         	8.16           	0.107
MS.674         	8.142          	0.109
MS.675         	8.127          	0.101
MS.676         	8.11           	0.107
MS.677         	8.095          	0.113
MS.678         	8.077          	0.107
MS.679         	8.062          	0.105
MS.680         	8.045          	0.105
MS.681         	8.03           	0.107
MS.682         	8.015          	0.119
MS.683         	7.997          	0.111
MS.684         	7.982          	0.109
MS.685         	7.965          	0.107
MS.686         	7.95           	0.107
DERIVED EXCITABILITY VARIABLES
Program = QTracP 3/4/2020
Threshold method = 6 (optimised for CAP, using data for present condition only)
SR method = 1 (using actual data values)
6.                 	0.000               	Peak response\(mV)
9.                 	32                  	Temperature ( C)
17.                	23                  	Age (years)
18.                	2                   	Sex (M=1, F=2)

EXTRA VARIABLES

MScPeak(mV) = 10.18
MScS5(mA) = 17.05
MScS50(mA) = 19.99
MScS95(mA) = 23.9
MScNSteps = 3
MScSteps(%) = 6.3
MScStepMax(%) = 2.2
MScD50 = 36
MScSlope = 6.1
MSFPeakAmp(mV) = 10.1
MSFNUnits = 168
MSFMeanUnitAmp(uV) = 60.1
MSFHuntTime(m) = 2.57
MSFError(%) = 3.67
MSFNLarge = 56.72
MSFMedianAmp(%) = 0.558
MSFMedianAmp(mV) = 0.0563
MSFHalfAmpAmp(%) = 0.684
MSFHalfAmpAmp(mV) = 0.069
MSFLargestAmp(%) = 1.97
MSFLargestAmp(mV) = 0.199
MSFMeanRS(%) = 2
MSFOpts = 10106121
MSFTraces = 449
MSFSizeLimit(uV) = 25.2
MSFLimitType = 1
MSFSmallestAmp(uV) = 26

EXTRA WAVEFORMS


!MScan Model
!168
	1	12.52	0.74	2
	2	16.57	0.83	2
	3	16.76	0.55	2
	4	16.83	0.28	2
	5	16.91	0.37	2
	6	16.98	0.37	2
	7	17.05	0.5	2
	8	17.09	0.35	2
	9	17.13	0.35	2
	10	17.17	0.37	2
	11	17.21	0.35	2
	12	17.25	0.36	2
	13	17.3	0.39	2
	14	17.33	0.35	2
	15	17.37	0.33	2
	16	17.41	0.37	2
	17	17.44	0.38	2
	18	17.48	0.34	2
	19	17.58	0.77	2
	20	17.67	0.56	2
	21	17.72	0.27	2
	22	17.76	0.5	2
	23	17.83	1.1	2
	24	17.9	0.41	2
	25	17.95	0.44	2
	26	18	0.74	2
	27	18.07	1.14	2
	28	18.16	1.23	2
	29	18.23	0.96	2
	30	18.29	0.9	2
	31	18.35	1	2
	32	18.39	0.96	2
	33	18.45	0.69	2
	34	18.49	0.35	2
	35	18.52	0.77	2
	36	18.55	0.84	2
	37	18.59	0.84	2
	38	18.63	0.7	2
	39	18.66	0.63	2
	40	18.7	0.69	2
	41	18.74	0.77	2
	42	18.78	0.78	2
	43	18.82	0.79	2
	44	18.86	0.76	2
	45	18.9	0.77	2
	46	18.95	0.88	2
	47	19	0.75	2
	48	19.05	0.61	2
	49	19.09	0.71	2
	50	19.13	0.63	2
	51	19.17	0.85	2
	52	19.21	0.8	2
	53	19.25	0.61	2
	54	19.29	0.43	2
	55	19.3	0.37	2
	56	19.32	0.27	2
	57	19.34	0.27	2
	58	19.37	0.39	2
	59	19.39	0.43	2
	60	19.41	0.41	2
	61	19.42	0.39	2
	62	19.44	0.39	2
	63	19.46	0.4	2
	64	19.48	0.4	2
	65	19.5	0.58	2
	66	19.53	0.56	2
	67	19.55	0.52	2
	68	19.58	0.56	2
	69	19.6	0.55	2
	70	19.63	0.54	2
	71	19.65	0.54	2
	72	19.68	0.61	2
	73	19.72	0.79	2
	74	19.76	0.79	2
	75	19.79	0.76	2
	76	19.83	0.75	2
	77	19.87	0.58	2
	78	19.92	0.76	2
	79	19.97	0.68	2
	80	20.02	0.69	2
	81	20.07	0.7	2
	82	20.12	0.64	2
	83	20.13	0.27	2
	84	20.16	0.63	2
	85	20.21	0.59	2
	86	20.26	0.55	2
	87	20.31	0.59	2
	88	20.36	0.65	2
	89	20.42	0.64	2
	90	20.47	0.62	2
	91	20.52	0.48	2
	92	20.56	0.48	2
	93	20.6	0.59	2
	94	20.64	0.55	2
	95	20.69	0.56	2
	96	20.74	0.69	2
	97	20.79	0.68	2
	98	20.85	0.72	2
	99	20.9	0.8	2
	100	20.98	0.99	2
	101	21.05	0.88	2
	102	21.11	0.78	2
	103	21.16	0.68	2
	104	21.21	0.81	2
	105	21.26	0.73	2
	106	21.31	0.7	2
	107	21.35	0.66	2
	108	21.4	0.65	2
	109	21.44	0.56	2
	110	21.49	0.56	2
	111	21.53	0.58	2
	112	21.56	0.39	2
	113	21.59	0.54	2
	114	21.62	0.59	2
	115	21.64	0.57	2
	116	21.67	0.49	2
	117	21.7	0.44	2
	118	21.71	0.26	2
	119	21.73	0.44	2
	120	21.75	0.32	2
	121	21.78	0.48	2
	122	21.81	0.6	2
	123	21.85	0.5	2
	124	21.88	0.38	2
	125	21.92	0.39	2
	126	21.95	0.26	2
	127	21.96	0.26	2
	128	21.98	0.26	2
	129	21.99	0.26	2
	130	22.01	0.27	2
	131	22.02	0.28	2
	132	22.04	0.28	2
	133	22.05	0.28	2
	134	22.07	0.28	2
	135	22.08	0.28	2
	136	22.11	0.45	2
	137	22.14	0.41	2
	138	22.17	0.41	2
	139	22.2	0.3	2
	140	22.22	0.35	2
	141	22.25	0.35	2
	142	22.28	0.35	2
	143	22.3	0.35	2
	144	22.33	0.33	2
	145	22.36	0.32	2
	146	22.38	0.36	2
	147	22.41	0.4	2
	148	22.45	0.52	2
	149	22.49	0.53	2
	150	22.52	0.53	2
	151	22.56	0.54	2
	152	22.6	0.55	2
	153	22.65	0.71	2
	154	22.73	1.16	2
	155	22.82	0.66	2
	156	22.92	1.12	2
	157	23.05	1.38	2
	158	23.27	1.17	2
	159	23.52	1.97	2
	160	23.64	0.67	2
	161	23.73	0.33	2
	162	23.85	0.92	2
	163	23.97	1.14	2
	164	24.13	0.92	2
	165	24.61	0.91	2
	166	26.89	0.76	2
	167	27.26	1.58	2
	168	27.55	0.26	2

