File:              	C:\Qtrac\Data\Daniel M Sørensen\MScan multicentre study\Data from centres\Edmonton\MSCC00211C.QZD
Name:              	CA.EDM.NC.4.1
Protocol:          	MSCAN-R2
Date:              	11/2/20
Start time:        	14:09:09
Age:               	59
Sex:               	F
Temperature:       	33.9
S/R sites:         	CP Kn-TA
NC/disease:        	NC
Operator:          	KJ
Comments:
M-SCAN DATA (7.1-1.8m)
Scanpts: 62, 69, 556, 564
Stim. (mA)     	Amp. (mV)
MS.1           	18.5           	5.239
MS.2           	18.5           	5.249
MS.3           	18.5           	5.235
MS.4           	18.5           	5.223
MS.5           	18.5           	5.227
MS.6           	18.5           	5.199
MS.7           	18.5           	5.205
MS.8           	18.5           	5.247
MS.9           	18.5           	5.203
MS.10          	18.5           	5.257
MS.11          	18.5           	5.261
MS.12          	18.5           	5.247
MS.13          	18.5           	5.253
MS.14          	18.5           	5.235
MS.15          	18.5           	5.217
MS.16          	18.5           	5.261
MS.17          	18.5           	5.269
MS.18          	18.5           	5.217
MS.19          	18.5           	5.221
MS.20          	18.5           	5.231
MS.21          	18.5           	5.253
MS.22          	18.5           	5.245
MS.23          	18.425         	5.219
MS.24          	18.39          	5.243
MS.25          	18.352         	5.269
MS.26          	18.315         	5.277
MS.27          	18.28          	5.255
MS.28          	18.243         	5.267
MS.29          	18.208         	5.283
MS.30          	18.17          	5.251
MS.31          	18.132         	5.221
MS.32          	18.097         	5.213
MS.33          	18.06          	5.269
MS.34          	18.025         	5.273
MS.35          	17.99          	5.265
MS.36          	17.952         	5.265
MS.37          	17.917         	5.251
MS.38          	17.882         	5.251
MS.39          	17.845         	5.287
MS.40          	17.81          	5.265
MS.41          	17.775         	5.245
MS.42          	17.74          	5.221
MS.43          	17.702         	5.237
MS.44          	17.667         	5.217
MS.45          	17.632         	5.281
MS.46          	17.597         	5.271
MS.47          	17.562         	5.237
MS.48          	17.528         	5.291
MS.49          	17.493         	5.259
MS.50          	17.458         	5.243
MS.51          	17.422         	5.281
MS.52          	17.387         	5.263
MS.53          	17.352         	5.261
MS.54          	17.317         	5.243
MS.55          	17.285         	5.255
MS.56          	17.25          	5.255
MS.57          	17.215         	5.215
MS.58          	17.18          	5.237
MS.59          	17.145         	5.279
MS.60          	17.112         	5.297
MS.61          	17.077         	5.269
MS.62          	17.042         	5.269
MS.63          	17.01          	5.231
MS.64          	16.975         	5.255
MS.65          	16.942         	5.291
MS.66          	16.907         	5.261
MS.67          	16.875         	5.291
MS.68          	16.84          	5.267
MS.69          	16.807         	5.269
MS.70          	16.772         	5.301
MS.71          	16.74          	5.287
MS.72          	16.705         	5.257
MS.73          	16.672         	5.243
MS.74          	16.64          	5.229
MS.75          	16.605         	5.205
MS.76          	16.573         	5.092
MS.77          	16.54          	5.17
MS.78          	16.507         	5.217
MS.79          	16.472         	5.225
MS.80          	16.44          	5.172
MS.81          	16.407         	5.19
MS.82          	16.375         	5.184
MS.83          	16.342         	5.233
MS.84          	16.31          	5.172
MS.85          	16.278         	5.14
MS.86          	16.245         	5.15
MS.87          	16.212         	5.136
MS.88          	16.18          	5.144
MS.89          	16.147         	5.134
MS.90          	16.115         	5.16
MS.91          	16.083         	5.12
MS.92          	16.05          	5.094
MS.93          	16.02          	5.136
MS.94          	15.987         	5.146
MS.95          	15.955         	5.148
MS.96          	15.922         	5.13
MS.97          	15.89          	5.16
MS.98          	15.86          	4.979
MS.99          	15.827         	5.136
MS.100         	15.795         	5.132
MS.101         	15.765         	4.983
MS.102         	15.733         	5.029
MS.103         	15.702         	5.023
MS.104         	15.67          	5.013
MS.105         	15.64          	5.108
MS.106         	15.608         	5.13
MS.107         	15.577         	5.134
MS.108         	15.545         	5.116
MS.109         	15.515         	5.1
MS.110         	15.483         	5.031
MS.111         	15.452         	5.009
MS.112         	15.422         	5.106
MS.113         	15.39          	5.005
MS.114         	15.36          	5.003
MS.115         	15.33          	5.029
MS.116         	15.297         	5.017
MS.117         	15.267         	5.005
MS.118         	15.237         	4.979
MS.119         	15.207         	4.927
MS.120         	15.177         	4.955
MS.121         	15.148         	4.951
MS.122         	15.115         	4.917
MS.123         	15.085         	4.87
MS.124         	15.055         	4.967
MS.125         	15.025         	4.943
MS.126         	14.995         	4.888
MS.127         	14.965         	4.921
MS.128         	14.935         	4.939
MS.129         	14.905         	5.043
MS.130         	14.877         	5.049
MS.131         	14.847         	4.971
MS.132         	14.818         	4.935
MS.133         	14.787         	4.894
MS.134         	14.757         	4.747
MS.135         	14.727         	4.834
MS.136         	14.7           	4.866
MS.137         	14.67          	4.729
MS.138         	14.64          	4.8
MS.139         	14.61          	4.816
MS.140         	14.582         	4.804
MS.141         	14.552         	4.78
MS.142         	14.523         	4.85
MS.143         	14.495         	4.747
MS.144         	14.465         	4.685
MS.145         	14.438         	4.757
MS.146         	14.407         	4.766
MS.147         	14.38          	4.709
MS.148         	14.35          	4.635
MS.149         	14.322         	4.659
MS.150         	14.292         	4.695
MS.151         	14.265         	4.657
MS.152         	14.235         	4.659
MS.153         	14.207         	4.649
MS.154         	14.18          	4.639
MS.155         	14.15          	4.604
MS.156         	14.122         	4.689
MS.157         	14.095         	4.546
MS.158         	14.065         	4.6
MS.159         	14.037         	4.709
MS.160         	14.01          	4.5
MS.161         	13.983         	4.62
MS.162         	13.955         	4.586
MS.163         	13.925         	4.542
MS.164         	13.898         	4.54
MS.165         	13.87          	4.52
MS.166         	13.842         	4.421
MS.167         	13.815         	4.445
MS.168         	13.787         	4.518
MS.169         	13.76          	4.401
MS.170         	13.733         	4.421
MS.171         	13.705         	4.459
MS.172         	13.677         	4.266
MS.173         	13.65          	4.25
MS.174         	13.622         	4.361
MS.175         	13.595         	4.183
MS.176         	13.568         	4.216
MS.177         	13.542         	4.26
MS.178         	13.515         	4.159
MS.179         	13.487         	3.996
MS.180         	13.46          	3.996
MS.181         	13.432         	4.057
MS.182         	13.407         	3.968
MS.183         	13.38          	4.046
MS.184         	13.352         	4.137
MS.185         	13.327         	4.091
MS.186         	13.3           	4.004
MS.187         	13.273         	4.024
MS.188         	13.247         	3.946
MS.189         	13.22          	3.936
MS.190         	13.195         	3.895
MS.191         	13.167         	3.905
MS.192         	13.142         	3.859
MS.193         	13.115         	3.94
MS.194         	13.09          	3.905
MS.195         	13.062         	3.819
MS.196         	13.037         	3.803
MS.197         	13.01          	3.825
MS.198         	12.985         	3.839
MS.199         	12.957         	3.833
MS.200         	12.932         	3.811
MS.201         	12.907         	3.732
MS.202         	12.88          	3.833
MS.203         	12.855         	3.865
MS.204         	12.83          	3.738
MS.205         	12.805         	3.75
MS.206         	12.778         	3.758
MS.207         	12.752         	3.748
MS.208         	12.727         	3.678
MS.209         	12.702         	3.706
MS.210         	12.677         	3.567
MS.211         	12.653         	3.511
MS.212         	12.625         	3.499
MS.213         	12.6           	3.448
MS.214         	12.575         	3.4
MS.215         	12.55          	3.476
MS.216         	12.525         	3.456
MS.217         	12.5           	3.484
MS.218         	12.475         	3.36
MS.219         	12.45          	3.37
MS.220         	12.425         	3.45
MS.221         	12.4           	3.444
MS.222         	12.375         	3.297
MS.223         	12.352         	3.223
MS.224         	12.327         	3.279
MS.225         	12.302         	3.251
MS.226         	12.278         	3.215
MS.227         	12.252         	3.19
MS.228         	12.227         	3.378
MS.229         	12.205         	3.134
MS.230         	12.18          	3.134
MS.231         	12.155         	3.049
MS.232         	12.13          	2.983
MS.233         	12.108         	2.9
MS.234         	12.082         	3.055
MS.235         	12.057         	3.078
MS.236         	12.035         	3.007
MS.237         	12.01          	2.935
MS.238         	11.988         	2.892
MS.239         	11.962         	2.874
MS.240         	11.938         	2.914
MS.241         	11.915         	2.838
MS.242         	11.89          	2.822
MS.243         	11.867         	2.852
MS.244         	11.842         	2.763
MS.245         	11.82          	2.741
MS.246         	11.795         	2.741
MS.247         	11.773         	2.624
MS.248         	11.75          	2.564
MS.249         	11.725         	2.54
MS.250         	11.702         	2.635
MS.251         	11.677         	2.546
MS.252         	11.655         	2.483
MS.253         	11.632         	2.542
MS.254         	11.61          	2.572
MS.255         	11.585         	2.427
MS.256         	11.562         	2.391
MS.257         	11.54          	2.552
MS.258         	11.517         	2.429
MS.259         	11.492         	2.469
MS.260         	11.47          	2.31
MS.261         	11.447         	2.312
MS.262         	11.425         	2.254
MS.263         	11.403         	2.296
MS.264         	11.38          	2.334
MS.265         	11.355         	2.336
MS.266         	11.332         	2.288
MS.267         	11.31          	2.212
MS.268         	11.287         	2.153
MS.269         	11.265         	2.177
MS.270         	11.242         	2.218
MS.271         	11.22          	2.137
MS.272         	11.197         	2.111
MS.273         	11.175         	2.105
MS.274         	11.153         	2.147
MS.275         	11.132         	2.046
MS.276         	11.11          	2.083
MS.277         	11.087         	2.042
MS.278         	11.065         	2.067
MS.279         	11.042         	2.004
MS.280         	11.02          	1.98
MS.281         	10.997         	1.99
MS.282         	10.977         	2.067
MS.283         	10.955         	1.94
MS.284         	10.932         	1.909
MS.285         	10.91          	1.877
MS.286         	10.89          	1.958
MS.287         	10.867         	1.754
MS.288         	10.845         	1.915
MS.289         	10.825         	1.809
MS.290         	10.802         	1.881
MS.291         	10.78          	1.674
MS.292         	10.76          	1.801
MS.293         	10.738         	1.718
MS.294         	10.717         	1.682
MS.295         	10.695         	1.662
MS.296         	10.672         	1.72
MS.297         	10.653         	1.831
MS.298         	10.63          	1.551
MS.299         	10.61          	1.535
MS.300         	10.587         	1.529
MS.301         	10.568         	1.527
MS.302         	10.545         	1.629
MS.303         	10.525         	1.656
MS.304         	10.505         	1.583
MS.305         	10.483         	1.702
MS.306         	10.462         	1.587
MS.307         	10.443         	1.48
MS.308         	10.42          	1.495
MS.309         	10.4           	1.561
MS.310         	10.38          	1.549
MS.311         	10.358         	1.497
MS.312         	10.337         	1.633
MS.313         	10.318         	1.507
MS.314         	10.295         	1.587
MS.315         	10.275         	1.543
MS.316         	10.255         	1.501
MS.317         	10.235         	1.462
MS.318         	10.215         	1.547
MS.319         	10.193         	1.414
MS.320         	10.172         	1.434
MS.321         	10.153         	1.37
MS.322         	10.132         	1.444
MS.323         	10.113         	1.428
MS.324         	10.092         	1.418
MS.325         	10.073         	1.48
MS.326         	10.052         	1.352
MS.327         	10.032         	1.347
MS.328         	10.012         	1.345
MS.329         	9.992          	1.311
MS.330         	9.972          	1.291
MS.331         	9.952          	1.283
MS.332         	9.932          	1.16
MS.333         	9.912          	1.285
MS.334         	9.892          	1.144
MS.335         	9.872          	1.299
MS.336         	9.852          	1.176
MS.337         	9.832          	1.112
MS.338         	9.812          	1.148
MS.339         	9.795          	1.253
MS.340         	9.775          	1.241
MS.341         	9.755          	1.162
MS.342         	9.735          	1.162
MS.343         	9.715          	1.031
MS.344         	9.698          	1.041
MS.345         	9.677          	1.053
MS.346         	9.657          	1.088
MS.347         	9.637          	0.973
MS.348         	9.62           	0.967
MS.349         	9.6            	0.896
MS.350         	9.58           	0.838
MS.351         	9.562          	0.912
MS.352         	9.542          	0.912
MS.353         	9.523          	0.818
MS.354         	9.505          	0.884
MS.355         	9.485          	0.824
MS.356         	9.467          	0.927
MS.357         	9.448          	0.886
MS.358         	9.43           	0.753
MS.359         	9.41           	0.806
MS.360         	9.39           	0.649
MS.361         	9.372          	0.701
MS.362         	9.352          	0.59
MS.363         	9.335          	0.687
MS.364         	9.318          	0.655
MS.365         	9.297          	0.62
MS.366         	9.28           	0.532
MS.367         	9.26           	0.6
MS.368         	9.242          	0.562
MS.369         	9.222          	0.582
MS.370         	9.205          	0.461
MS.371         	9.188          	0.536
MS.372         	9.167          	0.522
MS.373         	9.15           	0.52
MS.374         	9.132          	0.538
MS.375         	9.113          	0.431
MS.376         	9.095          	0.409
MS.377         	9.077          	0.421
MS.378         	9.06           	0.467
MS.379         	9.04           	0.385
MS.380         	9.023          	0.375
MS.381         	9.005          	0.433
MS.382         	8.988          	0.443
MS.383         	8.97           	0.342
MS.384         	8.95           	0.316
MS.385         	8.932          	0.387
MS.386         	8.915          	0.304
MS.387         	8.898          	0.314
MS.388         	8.88           	0.35
MS.389         	8.863          	0.312
MS.390         	8.845          	0.328
MS.391         	8.827          	0.328
MS.392         	8.81           	0.282
MS.393         	8.792          	0.28
MS.394         	8.775          	0.3
MS.395         	8.755          	0.252
MS.396         	8.74           	0.232
MS.397         	8.722          	0.28
MS.398         	8.705          	0.197
MS.399         	8.688          	0.27
MS.400         	8.67           	0.254
MS.401         	8.653          	0.218
MS.402         	8.635          	0.242
MS.403         	8.617          	0.234
MS.404         	8.6            	0.211
MS.405         	8.582          	0.226
MS.406         	8.565          	0.216
MS.407         	8.547          	0.205
MS.408         	8.533          	0.23
MS.409         	8.515          	0.197
MS.410         	8.497          	0.211
MS.411         	8.48           	0.207
MS.412         	8.462          	0.199
MS.413         	8.448          	0.193
MS.414         	8.43           	0.189
MS.415         	8.412          	0.175
MS.416         	8.395          	0.167
MS.417         	8.38           	0.185
MS.418         	8.363          	0.171
MS.419         	8.345          	0.175
MS.420         	8.33           	0.169
MS.421         	8.312          	0.169
MS.422         	8.295          	0.161
MS.423         	8.28           	0.187
MS.424         	8.262          	0.163
MS.425         	8.247          	0.147
MS.426         	8.23           	0.143
MS.427         	8.212          	0.137
MS.428         	8.198          	0.143
MS.429         	8.18           	0.169
MS.430         	8.165          	0.139
MS.431         	8.148          	0.179
MS.432         	8.132          	0.137
MS.433         	8.115          	0.155
MS.434         	8.1            	0.143
MS.435         	8.082          	0.123
MS.436         	8.068          	0.145
MS.437         	8.05           	0.137
MS.438         	8.035          	0.143
MS.439         	8.017          	0.123
MS.440         	8.002          	0.137
MS.441         	7.987          	0.125
MS.442         	7.97           	0.135
MS.443         	7.955          	0.129
MS.444         	7.94           	0.133
MS.445         	7.922          	0.117
MS.446         	7.907          	0.125
MS.447         	7.892          	0.123
MS.448         	7.875          	0.133
MS.449         	7.86           	0.117
MS.450         	7.845          	0.127
MS.451         	7.827          	0.113
MS.452         	7.812          	0.097
MS.453         	7.797          	0.119
MS.454         	7.782          	0.113
MS.455         	7.765          	0.101
MS.456         	7.75           	0.089
MS.457         	7.735          	0.113
MS.458         	7.72           	0.105
MS.459         	7.705          	0.101
MS.460         	7.69           	0.085
MS.461         	7.672          	0.083
MS.462         	7.657          	0.093
MS.463         	7.642          	0.095
MS.464         	7.628          	0.095
MS.465         	7.612          	0.105
MS.466         	7.597          	0.085
MS.467         	7.582          	0.093
MS.468         	7.567          	0.077
MS.469         	7.552          	0.093
MS.470         	7.537          	0.083
MS.471         	7.523          	0.073
MS.472         	7.507          	0.081
MS.473         	7.492          	0.081
MS.474         	7.477          	0.079
MS.475         	7.462          	0.079
MS.476         	7.447          	0.085
MS.477         	7.432          	0.075
MS.478         	7.418          	0.068
MS.479         	7.402          	0.062
MS.480         	7.387          	0.075
MS.481         	7.372          	0.064
MS.482         	7.357          	0.066
MS.483         	7.342          	0.073
MS.484         	7.327          	0.066
MS.485         	7.315          	0.062
MS.486         	7.3            	0.06
MS.487         	7.285          	0.062
MS.488         	7.27           	0.062
MS.489         	7.255          	0.06
MS.490         	7.24           	0.062
MS.491         	7.227          	0.052
MS.492         	7.212          	0.056
MS.493         	7.197          	0.058
MS.494         	7.182          	0.056
MS.495         	7.17           	0.058
MS.496         	7.155          	0.048
MS.497         	7.14           	0.056
MS.498         	7.125          	0.052
MS.499         	7.112          	0.048
MS.500         	7.097          	0.044
MS.501         	7.082          	0.046
MS.502         	7.07           	0.05
MS.503         	7.055          	0.054
MS.504         	7.04           	0.04
MS.505         	7.027          	0.046
MS.506         	7.012          	0.048
MS.507         	7              	0.044
MS.508         	6.985          	0.046
MS.509         	6.97           	0.05
MS.510         	6.957          	0.038
MS.511         	6.942          	0.04
MS.512         	6.93           	0.048
MS.513         	6.915          	0.04
MS.514         	6.902          	0.034
MS.515         	6.887          	0.042
MS.516         	6.875          	0.04
MS.517         	6.86           	0.032
MS.518         	6.847          	0.036
MS.519         	6.832          	0.034
MS.520         	6.82           	0.03
MS.521         	6.805          	0.026
MS.522         	6.793          	0.04
MS.523         	6.777          	0.032
MS.524         	6.765          	0.028
MS.525         	6.753          	0.032
MS.526         	6.737          	0.038
MS.527         	6.725          	0.022
MS.528         	6.71           	0.026
MS.529         	6.697          	0.028
MS.530         	6.685          	0.016
MS.531         	6.67           	0.024
MS.532         	6.657          	0.022
MS.533         	6.645          	0.028
MS.534         	6.63           	0.02
MS.535         	6.617          	0.03
MS.536         	6.605          	0.02
MS.537         	6.592          	0.022
MS.538         	6.577          	0.03
MS.539         	6.565          	0.016
MS.540         	6.552          	0.026
MS.541         	6.54           	0.022
MS.542         	6.525          	0.008
MS.543         	6.512          	0.018
MS.544         	6.5            	0.024
MS.545         	6.487          	0.022
MS.546         	6.475          	0.024
MS.547         	6.46           	0.014
MS.548         	6.447          	0.024
MS.549         	6.435          	0.022
MS.550         	6.422          	0.022
MS.551         	6.41           	0.022
MS.552         	6.398          	0.014
MS.553         	6.385          	0.014
MS.554         	6.37           	0.02
MS.555         	6.358          	0.014
MS.556         	6.345          	0.012
MS.557         	6.332          	0.012
MS.558         	6.32           	0.012
MS.559         	6.307          	0.014
MS.560         	6.295          	0.018
MS.561         	6.282          	0.008
MS.562         	6.27           	0.008
MS.563         	6.257          	0.026
MS.564         	6.245          	0.004
MS.565         	6.233          	0.012
MS.566         	6.22           	0.008
MS.567         	6.207          	0.014
MS.568         	6.195          	0.018
MS.569         	6.182          	0.038
MS.570         	6.17           	0.012
MS.571         	6.157          	0.016
MS.572         	6.145          	0.022
MS.573         	6.132          	0.016
MS.574         	6.122          	0.004
MS.575         	6.11           	0.014
MS.576         	6.097          	0.014
MS.577         	6.085          	0.036
MS.578         	6.072          	0.01
MS.579         	6.06           	0.012
MS.580         	6.047          	0.008
MS.581         	6.035          	0.155
MS.582         	6.025          	0.024
DERIVED EXCITABILITY VARIABLES
Program = QTracP 3/4/2020
Threshold method = 6 (optimised for CAP, using data for present condition only)
SR method = 1 (using actual data values)
6.                 	0.000               	Peak response\(mV)
9.                 	33.9                	Temperature ( C)
17.                	59                  	Age (years)
18.                	2                   	Sex (M=1, F=2)

EXTRA VARIABLES

MScPeak(mV) = 5.21
MScS5(mA) = 8.71
MScS50(mA) = 11.72
MScS95(mA) = 15.06
MScNSteps = 2
MScSteps(%) = 4.2
MScStepMax(%) = 2.1
MScD50 = 63
MScSlope = 3.71
MSFPeakAmp(mV) = 5.25
MSFNUnits = 161
MSFMeanUnitAmp(uV) = 32.6
MSFHuntTime(m) = 2.79
MSFError(%) = 1.47
MSFNLarge = 49.29
MSFMedianAmp(%) = 0.519
MSFMedianAmp(mV) = 0.0273
MSFHalfAmpAmp(%) = 0.677
MSFHalfAmpAmp(mV) = 0.0356
MSFLargestAmp(%) = 2.35
MSFLargestAmp(mV) = 0.123
MSFMeanRS(%) = 2
MSFOpts = 10106121
MScDuration(min) = 5.3
MSFTraces = 503
MSFSizeLimit(uV) = 13.1
MSFLimitType = 1
MSFSmallestAmp(uV) = 13.5

EXTRA WAVEFORMS


!MScan Model
!161
	1	6.86	0.64	2
	2	7.41	0.46	2
	3	7.58	0.34	2
	4	7.6	0.3	2
	5	7.76	0.32	2
	6	8.03	0.27	2
	7	8.25	0.44	2
	8	8.37	0.37	2
	9	8.47	0.35	2
	10	8.57	0.4	2
	11	8.66	0.42	2
	12	8.73	0.47	2
	13	8.77	0.46	2
	14	8.87	0.51	2
	15	8.91	0.57	2
	16	8.95	0.42	2
	17	8.98	0.34	2
	18	9.02	0.47	2
	19	9.06	0.47	2
	20	9.09	0.49	2
	21	9.12	0.4	2
	22	9.15	0.31	2
	23	9.17	0.37	2
	24	9.2	0.39	2
	25	9.22	0.42	2
	26	9.25	0.39	2
	27	9.28	0.44	2
	28	9.3	0.45	2
	29	9.32	0.42	2
	30	9.35	0.55	2
	31	9.37	0.57	2
	32	9.41	0.89	2
	33	9.44	0.7	2
	34	9.48	0.74	2
	35	9.53	1.13	2
	36	9.57	0.75	2
	37	9.58	0.28	2
	38	9.6	0.28	2
	39	9.62	0.26	2
	40	9.63	0.39	2
	41	9.65	0.44	2
	42	9.67	0.44	2
	43	9.69	0.72	2
	44	9.74	0.86	2
	45	9.82	1.34	2
	46	9.86	0.91	2
	47	9.88	0.98	2
	48	9.93	0.51	2
	49	9.96	0.58	2
	50	10	0.64	2
	51	10.03	0.42	2
	52	10.06	0.52	2
	53	10.11	0.79	2
	54	10.17	0.8	2
	55	10.59	2.35	2
	56	10.65	0.84	2
	57	10.72	1.19	2
	58	10.78	1.08	2
	59	10.82	0.57	2
	60	10.85	0.6	2
	61	10.88	0.65	2
	62	10.92	0.64	2
	63	10.95	0.65	2
	64	10.99	0.54	2
	65	11.02	0.51	2
	66	11.05	0.51	2
	67	11.08	0.52	2
	68	11.11	0.41	2
	69	11.15	0.64	2
	70	11.19	0.42	2
	71	11.2	0.3	2
	72	11.22	0.26	2
	73	11.24	0.36	2
	74	11.26	0.39	2
	75	11.29	0.28	2
	76	11.31	0.28	2
	77	11.33	0.4	2
	78	11.36	0.41	2
	79	11.39	0.58	2
	80	11.42	0.62	2
	81	11.46	0.68	2
	82	11.5	0.77	2
	83	11.55	0.51	2
	84	11.59	0.73	2
	85	11.62	0.55	2
	86	11.65	0.74	2
	87	11.67	0.64	2
	88	11.7	0.5	2
	89	11.72	0.47	2
	90	11.75	0.38	2
	91	11.77	0.43	2
	92	11.78	0.26	2
	93	11.79	0.28	2
	94	11.8	0.28	2
	95	11.82	0.28	2
	96	11.83	0.41	2
	97	11.85	0.49	2
	98	11.87	0.47	2
	99	11.89	0.44	2
	100	11.92	0.46	2
	101	11.96	0.94	2
	102	12	1.06	2
	103	12.05	0.92	2
	104	12.09	0.9	2
	105	12.14	0.74	2
	106	12.18	0.83	2
	107	12.22	0.7	2
	108	12.26	0.68	2
	109	12.3	0.89	2
	110	12.4	2.15	2
	111	12.43	1.1	2
	112	12.44	0.47	2
	113	12.47	0.51	2
	114	12.51	0.68	2
	115	12.54	0.62	2
	116	12.56	0.35	2
	117	12.58	0.29	2
	118	12.62	0.38	2
	119	12.63	0.39	2
	120	12.65	0.4	2
	121	12.67	0.53	2
	122	12.7	0.55	2
	123	12.72	0.39	2
	124	12.74	0.27	2
	125	12.77	0.37	2
	126	12.79	0.28	2
	127	12.84	1.15	2
	128	13.06	0.92	2
	129	13.1	0.28	2.2
	130	13.11	0.33	2
	131	13.16	0.63	2
	132	13.21	0.63	2
	133	13.29	0.84	2
	134	13.38	1.07	2
	135	13.47	1.47	2
	136	13.51	0.54	2
	137	13.53	0.26	2
	138	13.56	0.39	2
	139	13.58	0.58	2
	140	13.61	0.69	2
	141	13.64	0.74	2
	142	13.67	0.76	2
	143	13.7	0.59	2
	144	13.73	0.41	2.4
	145	13.81	1.4	1.8
	146	13.81	0.32	2
	147	13.9	0.88	2
	148	13.98	0.84	2
	149	14.14	1.34	2
	150	14.22	0.37	2
	151	14.29	0.55	2
	152	14.38	0.65	2
	153	14.5	0.83	2
	154	14.66	1.89	2
	155	15.04	1.78	2
	156	15.29	0.56	2
	157	15.5	1.11	2
	158	15.52	0.63	2
	159	16.16	0.94	2
	160	16.53	1.25	2
	161	16.73	0.67	2

