File:              	C:\Qtrac\Data\Daniel M Sørensen\MScan multicentre study\Data from centres\Edmonton\Processed data\MSCC01003A.QZD
Name:              	CA.EDM.NC.8.2
Protocol:          	MSCAN-R2
Date:              	3/10/20
Start time:        	17:42:09
Age:               	44
Sex:               	F
Temperature:       	33.6
S/R sites:         	APB
NC/disease:        	NC
Operator:          	KJ
Comments:
M-SCAN DATA (7.5-2m)
Scanpts: 135, 144, 575, 596
Stim. (mA)     	Amp. (mV)
MS.1           	11             	9.962
MS.2           	11             	9.964
MS.3           	11             	9.966
MS.4           	11             	9.938
MS.5           	11             	9.924
MS.6           	11             	9.924
MS.7           	11             	9.918
MS.8           	11             	9.916
MS.9           	11             	9.914
MS.10          	11             	9.918
MS.11          	11             	9.914
MS.12          	11             	9.914
MS.13          	11             	9.916
MS.14          	11             	9.924
MS.15          	11             	9.916
MS.16          	11             	9.918
MS.17          	11             	9.9
MS.18          	11             	9.902
MS.19          	11             	9.894
MS.20          	11             	9.892
MS.21          	11             	9.896
MS.22          	11             	9.894
MS.23          	10.955         	9.881
MS.24          	10.935         	9.875
MS.25          	10.912         	9.89
MS.26          	10.89          	9.885
MS.27          	10.867         	9.896
MS.28          	10.847         	9.89
MS.29          	10.825         	9.883
MS.30          	10.802         	9.879
MS.31          	10.782         	9.894
MS.32          	10.76          	9.885
MS.33          	10.74          	9.888
MS.34          	10.717         	9.892
MS.35          	10.695         	9.885
MS.36          	10.675         	9.894
MS.37          	10.653         	9.896
MS.38          	10.632         	9.896
MS.39          	10.61          	9.9
MS.40          	10.59          	9.892
MS.41          	10.568         	9.892
MS.42          	10.547         	9.894
MS.43          	10.528         	9.896
MS.44          	10.505         	9.902
MS.45          	10.485         	9.894
MS.46          	10.462         	9.898
MS.47          	10.443         	9.898
MS.48          	10.422         	9.9
MS.49          	10.4           	9.898
MS.50          	10.38          	9.91
MS.51          	10.36          	9.902
MS.52          	10.337         	9.914
MS.53          	10.318         	9.91
MS.54          	10.297         	9.904
MS.55          	10.278         	9.898
MS.56          	10.257         	9.904
MS.57          	10.235         	9.902
MS.58          	10.215         	9.9
MS.59          	10.195         	9.898
MS.60          	10.175         	9.904
MS.61          	10.155         	9.91
MS.62          	10.135         	9.894
MS.63          	10.113         	9.9
MS.64          	10.092         	9.898
MS.65          	10.073         	9.902
MS.66          	10.052         	9.914
MS.67          	10.032         	9.902
MS.68          	10.012         	9.906
MS.69          	9.992          	9.902
MS.70          	9.972          	9.91
MS.71          	9.952          	9.908
MS.72          	9.932          	9.9
MS.73          	9.912          	9.906
MS.74          	9.892          	9.91
MS.75          	9.875          	9.902
MS.76          	9.855          	9.908
MS.77          	9.835          	9.906
MS.78          	9.815          	9.894
MS.79          	9.795          	9.898
MS.80          	9.775          	9.91
MS.81          	9.755          	9.922
MS.82          	9.738          	9.918
MS.83          	9.717          	9.914
MS.84          	9.698          	9.91
MS.85          	9.677          	9.904
MS.86          	9.66           	9.896
MS.87          	9.64           	9.892
MS.88          	9.62           	9.898
MS.89          	9.6            	9.892
MS.90          	9.582          	9.906
MS.91          	9.562          	9.902
MS.92          	9.545          	9.898
MS.93          	9.525          	9.906
MS.94          	9.505          	9.91
MS.95          	9.488          	9.908
MS.96          	9.467          	9.908
MS.97          	9.45           	9.904
MS.98          	9.43           	9.91
MS.99          	9.41           	9.912
MS.100         	9.392          	9.906
MS.101         	9.372          	9.914
MS.102         	9.355          	9.914
MS.103         	9.335          	9.912
MS.104         	9.318          	9.922
MS.105         	9.3            	9.906
MS.106         	9.28           	9.916
MS.107         	9.262          	9.922
MS.108         	9.242          	9.916
MS.109         	9.225          	9.918
MS.110         	9.207          	9.922
MS.111         	9.188          	9.916
MS.112         	9.17           	9.924
MS.113         	9.153          	9.926
MS.114         	9.132          	9.918
MS.115         	9.115          	9.93
MS.116         	9.097          	9.916
MS.117         	9.077          	9.934
MS.118         	9.06           	9.934
MS.119         	9.042          	9.93
MS.120         	9.025          	9.942
MS.121         	9.005          	9.936
MS.122         	8.988          	9.94
MS.123         	8.97           	9.936
MS.124         	8.952          	9.936
MS.125         	8.935          	9.934
MS.126         	8.917          	9.938
MS.127         	8.898          	9.942
MS.128         	8.88           	9.934
MS.129         	8.863          	9.934
MS.130         	8.845          	9.944
MS.131         	8.827          	9.94
MS.132         	8.81           	9.942
MS.133         	8.792          	9.928
MS.134         	8.775          	9.934
MS.135         	8.757          	9.934
MS.136         	8.74           	9.934
MS.137         	8.722          	9.932
MS.138         	8.705          	9.938
MS.139         	8.688          	9.948
MS.140         	8.67           	9.944
MS.141         	8.653          	9.936
MS.142         	8.635          	9.94
MS.143         	8.617          	9.944
MS.144         	8.6            	9.946
MS.145         	8.585          	9.936
MS.146         	8.568          	9.946
MS.147         	8.55           	9.95
MS.148         	8.533          	9.948
MS.149         	8.515          	9.956
MS.150         	8.497          	9.956
MS.151         	8.483          	9.946
MS.152         	8.465          	9.96
MS.153         	8.448          	9.948
MS.154         	8.43           	9.958
MS.155         	8.415          	9.962
MS.156         	8.398          	9.962
MS.157         	8.38           	9.964
MS.158         	8.363          	9.95
MS.159         	8.347          	9.936
MS.160         	8.33           	9.932
MS.161         	8.312          	9.938
MS.162         	8.297          	9.942
MS.163         	8.28           	9.938
MS.164         	8.265          	9.942
MS.165         	8.247          	9.944
MS.166         	8.23           	9.956
MS.167         	8.215          	9.952
MS.168         	8.198          	9.952
MS.169         	8.182          	9.962
MS.170         	8.165          	9.954
MS.171         	8.15           	9.946
MS.172         	8.132          	9.92
MS.173         	8.117          	9.962
MS.174         	8.1            	9.96
MS.175         	8.085          	9.972
MS.176         	8.068          	9.948
MS.177         	8.052          	9.944
MS.178         	8.035          	9.89
MS.179         	8.02           	9.894
MS.180         	8.002          	9.95
MS.181         	7.987          	9.894
MS.182         	7.972          	9.918
MS.183         	7.955          	9.871
MS.184         	7.94           	9.885
MS.185         	7.925          	9.916
MS.186         	7.907          	9.956
MS.187         	7.892          	9.904
MS.188         	7.878          	9.896
MS.189         	7.86           	9.873
MS.190         	7.845          	9.89
MS.191         	7.83           	9.885
MS.192         	7.815          	9.45
MS.193         	7.797          	9.902
MS.194         	7.782          	9.908
MS.195         	7.767          	9.898
MS.196         	7.753          	9.9
MS.197         	7.735          	9.922
MS.198         	7.72           	9.753
MS.199         	7.705          	9.787
MS.200         	7.69           	9.908
MS.201         	7.675          	9.769
MS.202         	7.66           	9.912
MS.203         	7.645          	9.535
MS.204         	7.628          	9.825
MS.205         	7.612          	9.962
MS.206         	7.597          	9.533
MS.207         	7.582          	9.342
MS.208         	7.567          	9.634
MS.209         	7.552          	9.634
MS.210         	7.537          	9.39
MS.211         	7.523          	9.499
MS.212         	7.507          	9.565
MS.213         	7.492          	8.949
MS.214         	7.477          	9.374
MS.215         	7.462          	9.068
MS.216         	7.447          	9.402
MS.217         	7.432          	8.886
MS.218         	7.418          	8.729
MS.219         	7.402          	9.328
MS.220         	7.387          	9.112
MS.221         	7.372          	8.723
MS.222         	7.36           	9.181
MS.223         	7.345          	9.36
MS.224         	7.33           	8.641
MS.225         	7.315          	8.615
MS.226         	7.3            	8.808
MS.227         	7.285          	8.673
MS.228         	7.27           	8.619
MS.229         	7.257          	8.421
MS.230         	7.242          	9.209
MS.231         	7.227          	8.683
MS.232         	7.212          	8.6
MS.233         	7.197          	8.665
MS.234         	7.185          	8.975
MS.235         	7.17           	8.421
MS.236         	7.155          	8.331
MS.237         	7.142          	8.196
MS.238         	7.128          	8.457
MS.239         	7.112          	8.397
MS.240         	7.097          	8.468
MS.241         	7.085          	8.23
MS.242         	7.07           	7.682
MS.243         	7.055          	7.924
MS.244         	7.043          	8.151
MS.245         	7.027          	8.2
MS.246         	7.015          	8.045
MS.247         	7              	7.692
MS.248         	6.985          	7.436
MS.249         	6.972          	7.63
MS.250         	6.957          	7.684
MS.251         	6.945          	7.66
MS.252         	6.93           	7.491
MS.253         	6.918          	7.323
MS.254         	6.902          	7.688
MS.255         	6.89           	7.644
MS.256         	6.875          	7.279
MS.257         	6.862          	7.162
MS.258         	6.847          	7.388
MS.259         	6.835          	7.134
MS.260         	6.82           	7.078
MS.261         	6.807          	7.285
MS.262         	6.793          	7.021
MS.263         	6.78           	7.001
MS.264         	6.765          	7.197
MS.265         	6.753          	6.987
MS.266         	6.74           	6.864
MS.267         	6.725          	6.886
MS.268         	6.712          	6.844
MS.269         	6.697          	6.764
MS.270         	6.685          	6.957
MS.271         	6.672          	6.528
MS.272         	6.657          	6.409
MS.273         	6.645          	6.719
MS.274         	6.632          	6.755
MS.275         	6.617          	6.582
MS.276         	6.605          	6.574
MS.277         	6.592          	6.749
MS.278         	6.58           	6.292
MS.279         	6.565          	6.641
MS.280         	6.552          	6.395
MS.281         	6.54           	6.431
MS.282         	6.527          	6.018
MS.283         	6.512          	6.409
MS.284         	6.5            	6.258
MS.285         	6.487          	5.573
MS.286         	6.475          	6.578
MS.287         	6.462          	6.026
MS.288         	6.45           	5.839
MS.289         	6.435          	5.958
MS.290         	6.422          	5.652
MS.291         	6.41           	6.232
MS.292         	6.398          	5.505
MS.293         	6.385          	5.464
MS.294         	6.372          	5.448
MS.295         	6.36           	5.156
MS.296         	6.347          	5.593
MS.297         	6.332          	5.35
MS.298         	6.32           	5.217
MS.299         	6.307          	5.333
MS.300         	6.295          	5.682
MS.301         	6.282          	5.414
MS.302         	6.27           	4.959
MS.303         	6.257          	5.122
MS.304         	6.245          	5.34
MS.305         	6.233          	4.82
MS.306         	6.22           	4.999
MS.307         	6.207          	5.122
MS.308         	6.195          	5.09
MS.309         	6.182          	5.076
MS.310         	6.17           	5.003
MS.311         	6.16           	4.751
MS.312         	6.148          	4.935
MS.313         	6.135          	4.812
MS.314         	6.122          	4.486
MS.315         	6.11           	4.657
MS.316         	6.097          	4.471
MS.317         	6.085          	4.401
MS.318         	6.072          	4.198
MS.319         	6.06           	4.661
MS.320         	6.05           	4.469
MS.321         	6.037          	4.145
MS.322         	6.025          	4.298
MS.323         	6.012          	4.453
MS.324         	6              	4.349
MS.325         	5.99           	4.27
MS.326         	5.977          	4.332
MS.327         	5.965          	4.252
MS.328         	5.952          	3.909
MS.329         	5.94           	4.059
MS.330         	5.93           	3.909
MS.331         	5.918          	3.875
MS.332         	5.905          	3.934
MS.333         	5.892          	3.452
MS.334         	5.882          	3.587
MS.335         	5.87           	3.48
MS.336         	5.858          	4.04
MS.337         	5.847          	3.74
MS.338         	5.835          	3.152
MS.339         	5.822          	3.521
MS.340         	5.812          	3.192
MS.341         	5.8            	3.42
MS.342         	5.787          	3.331
MS.343         	5.777          	3.337
MS.344         	5.765          	2.79
MS.345         	5.755          	3.402
MS.346         	5.742          	2.872
MS.347         	5.73           	3.201
MS.348         	5.72           	2.516
MS.349         	5.707          	2.526
MS.350         	5.697          	2.496
MS.351         	5.685          	2.264
MS.352         	5.675          	2.316
MS.353         	5.662          	2.212
MS.354         	5.652          	2.397
MS.355         	5.64           	2.403
MS.356         	5.63           	2.403
MS.357         	5.617          	1.883
MS.358         	5.608          	1.913
MS.359         	5.595          	2.042
MS.360         	5.585          	2.058
MS.361         	5.572          	2.056
MS.362         	5.562          	1.909
MS.363         	5.55           	1.704
MS.364         	5.54           	1.746
MS.365         	5.527          	1.734
MS.366         	5.517          	1.726
MS.367         	5.507          	1.676
MS.368         	5.495          	1.615
MS.369         	5.485          	1.642
MS.370         	5.472          	1.416
MS.371         	5.463          	1.674
MS.372         	5.452          	1.438
MS.373         	5.44           	1.519
MS.374         	5.43           	1.2
MS.375         	5.42           	1.406
MS.376         	5.407          	1.384
MS.377         	5.398          	1.271
MS.378         	5.387          	1.178
MS.379         	5.375          	1.118
MS.380         	5.365          	1.243
MS.381         	5.355          	1.094
MS.382         	5.342          	1.015
MS.383         	5.332          	1.08
MS.384         	5.322          	1.003
MS.385         	5.312          	1.164
MS.386         	5.3            	0.951
MS.387         	5.29           	0.997
MS.388         	5.28           	1.088
MS.389         	5.27           	1.047
MS.390         	5.257          	0.767
MS.391         	5.247          	0.858
MS.392         	5.237          	0.908
MS.393         	5.227          	0.886
MS.394         	5.217          	0.784
MS.395         	5.207          	0.806
MS.396         	5.195          	0.812
MS.397         	5.185          	0.681
MS.398         	5.175          	0.729
MS.399         	5.165          	0.876
MS.400         	5.155          	0.622
MS.401         	5.145          	0.695
MS.402         	5.135          	0.665
MS.403         	5.125          	0.677
MS.404         	5.112          	0.61
MS.405         	5.102          	0.649
MS.406         	5.092          	0.62
MS.407         	5.082          	0.647
MS.408         	5.072          	0.643
MS.409         	5.062          	0.643
MS.410         	5.052          	0.451
MS.411         	5.043          	0.508
MS.412         	5.032          	0.471
MS.413         	5.023          	0.411
MS.414         	5.012          	0.375
MS.415         	5.003          	0.367
MS.416         	4.992          	0.443
MS.417         	4.983          	0.441
MS.418         	4.972          	0.413
MS.419         	4.963          	0.361
MS.420         	4.952          	0.447
MS.421         	4.943          	0.417
MS.422         	4.932          	0.405
MS.423         	4.922          	0.409
MS.424         	4.912          	0.346
MS.425         	4.902          	0.407
MS.426         	4.892          	0.465
MS.427         	4.882          	0.367
MS.428         	4.875          	0.352
MS.429         	4.865          	0.391
MS.430         	4.855          	0.373
MS.431         	4.845          	0.302
MS.432         	4.835          	0.367
MS.433         	4.825          	0.344
MS.434         	4.815          	0.288
MS.435         	4.805          	0.324
MS.436         	4.797          	0.34
MS.437         	4.787          	0.34
MS.438         	4.777          	0.304
MS.439         	4.767          	0.27
MS.440         	4.757          	0.242
MS.441         	4.75           	0.324
MS.442         	4.74           	0.29
MS.443         	4.73           	0.288
MS.444         	4.72           	0.248
MS.445         	4.71           	0.226
MS.446         	4.702          	0.209
MS.447         	4.693          	0.113
MS.448         	4.682          	0.087
MS.449         	4.673          	0.232
MS.450         	4.665          	0.101
MS.451         	4.655          	0.101
MS.452         	4.645          	0.143
MS.453         	4.635          	0.095
MS.454         	4.628          	0.093
MS.455         	4.617          	0.073
MS.456         	4.608          	0.161
MS.457         	4.6            	0.149
MS.458         	4.59           	0.123
MS.459         	4.58           	0.107
MS.460         	4.572          	0.157
MS.461         	4.562          	0.127
MS.462         	4.552          	0.091
MS.463         	4.545          	0.171
MS.464         	4.535          	0.089
MS.465         	4.525          	0.075
MS.466         	4.517          	0.173
MS.467         	4.507          	0.056
MS.468         	4.5            	0.159
MS.469         	4.49           	0.103
MS.470         	4.48           	0.07
MS.471         	4.472          	0.201
MS.472         	4.463          	0.073
MS.473         	4.455          	0.141
MS.474         	4.445          	0.062
MS.475         	4.438          	0.073
MS.476         	4.427          	0.066
MS.477         	4.42           	0.07
MS.478         	4.41           	0.073
MS.479         	4.402          	0.058
MS.480         	4.392          	0.081
MS.481         	4.382          	0.077
MS.482         	4.375          	0.066
MS.483         	4.365          	0.066
MS.484         	4.358          	0.066
MS.485         	4.35           	0.07
MS.486         	4.34           	0.068
MS.487         	4.332          	0.066
MS.488         	4.322          	0.068
MS.489         	4.315          	0.066
MS.490         	4.305          	0.068
MS.491         	4.298          	0.068
MS.492         	4.287          	0.066
MS.493         	4.28           	0.073
MS.494         	4.27           	0.064
MS.495         	4.262          	0.077
MS.496         	4.255          	0.075
MS.497         	4.245          	0.05
MS.498         	4.237          	0.044
MS.499         	4.227          	0.066
MS.500         	4.22           	0.062
MS.501         	4.213          	0.042
MS.502         	4.202          	0.042
MS.503         	4.195          	0.068
MS.504         	4.188          	0.066
MS.505         	4.177          	0.068
MS.506         	4.17           	0.042
MS.507         	4.162          	0.044
MS.508         	4.152          	0.073
MS.509         	4.145          	0.046
MS.510         	4.137          	0.068
MS.511         	4.128          	0.068
MS.512         	4.12           	0.068
MS.513         	4.112          	0.046
MS.514         	4.102          	0.042
MS.515         	4.095          	0.046
MS.516         	4.088          	0.07
MS.517         	4.08           	0.038
MS.518         	4.07           	0.044
MS.519         	4.062          	0.046
MS.520         	4.055          	0.048
MS.521         	4.048          	0.07
MS.522         	4.037          	0.044
MS.523         	4.03           	0.046
MS.524         	4.023          	0.044
MS.525         	4.015          	0.046
MS.526         	4.007          	0.07
MS.527         	3.997          	0.056
MS.528         	3.99           	0.032
MS.529         	3.982          	0.046
MS.530         	3.975          	0.046
MS.531         	3.967          	0.034
MS.532         	3.957          	0.026
MS.533         	3.95           	0.03
MS.534         	3.942          	0.042
MS.535         	3.935          	0.032
MS.536         	3.928          	0.032
MS.537         	3.92           	0.008
MS.538         	3.912          	0.026
MS.539         	3.902          	0.038
MS.540         	3.895          	0.000
MS.541         	3.887          	0.034
MS.542         	3.88           	0.028
MS.543         	3.872          	0.028
MS.544         	3.865          	0.032
MS.545         	3.857          	0.028
MS.546         	3.85           	0.004
MS.547         	3.842          	0.026
MS.548         	3.835          	0.028
MS.549         	3.827          	0.04
MS.550         	3.817          	0.000
MS.551         	3.81           	0.024
MS.552         	3.803          	0.002
MS.553         	3.795          	0.000
MS.554         	3.787          	0.026
MS.555         	3.78           	0.000
MS.556         	3.772          	0.000
MS.557         	3.765          	0.034
MS.558         	3.757          	0.000
MS.559         	3.75           	0.002
MS.560         	3.742          	0.000
MS.561         	3.735          	0.002
MS.562         	3.727          	0.002
MS.563         	3.72           	0.002
MS.564         	3.712          	0.028
MS.565         	3.705          	-0.002
MS.566         	3.697          	0.000
MS.567         	3.69           	0.002
MS.568         	3.682          	-0.002
MS.569         	3.675          	0.002
MS.570         	3.67           	0.000
MS.571         	3.662          	0.000
MS.572         	3.655          	0.008
MS.573         	3.647          	0.002
MS.574         	3.64           	0.002
MS.575         	3.632          	0.002
MS.576         	3.625          	0.004
MS.577         	3.617          	0.002
MS.578         	3.61           	0.000
MS.579         	3.602          	0.002
MS.580         	3.595          	0.002
MS.581         	3.59           	0.002
MS.582         	3.582          	0.004
MS.583         	3.575          	0.002
MS.584         	3.567          	0.002
MS.585         	3.56           	0.004
MS.586         	3.553          	0.004
MS.587         	3.547          	0.002
MS.588         	3.54           	0.002
MS.589         	3.533          	0.004
MS.590         	3.525          	0.002
MS.591         	3.517          	0.002
MS.592         	3.51           	0.002
MS.593         	3.505          	0.002
MS.594         	3.497          	0.002
MS.595         	3.49           	0.002
MS.596         	3.482          	0.000
DERIVED EXCITABILITY VARIABLES
Program = QTracP 3/4/2020
Threshold method = 6 (optimised for CAP, using data for present condition only)
SR method = 1 (using actual data values)
6.                 	0.000               	Peak response\(mV)
9.                 	33.6                	Temperature ( C)
17.                	44                  	Age (years)
18.                	2                   	Sex (M=1, F=2)

EXTRA VARIABLES

MScPeak(mV) = 9.92
MScS5(mA) = 5.05
MScS50(mA) = 6.21
MScS95(mA) = 7.55
MScNSteps = 1
MScSteps(%) = 2.1
MScStepMax(%) = 2.1
MScD50 = 41
MScSlope = 5
MSFPeakAmp(mV) = 9.94
MSFNUnits = 98
MSFMeanUnitAmp(uV) = 101.4
MSFHuntTime(m) = 2.93
MSFError(%) = 3.51
MSFNLarge = 21.53
MSFMedianAmp(%) = 0.672
MSFMedianAmp(mV) = 0.0668
MSFHalfAmpAmp(%) = 1.43
MSFHalfAmpAmp(mV) = 0.142
MSFLargestAmp(%) = 5.65
MSFLargestAmp(mV) = 0.562
MSFMeanRS(%) = 2
MSFOpts = 10106121
MScDuration(min) = 5.5
MSFTraces = 462
MSFSizeLimit(uV) = 24.8
MSFLimitType = 1
MSFSmallestAmp(uV) = 27

EXTRA WAVEFORMS


!MScan Model
!98
	1	3.82	0.36	2
	2	4.24	0.3	2
	3	4.66	0.62	2
	4	4.68	0.27	2
	5	4.7	0.42	2
	6	4.72	0.27	2
	7	4.73	0.38	2
	8	4.79	0.43	2
	9	4.84	0.6	2
	10	5	0.62	2
	11	5.03	0.44	2
	12	5.04	0.41	2
	13	5.08	0.81	2
	14	5.11	0.42	2
	15	5.14	0.48	2
	16	5.18	0.77	2
	17	5.22	0.52	2
	18	5.23	0.58	2
	19	5.25	0.53	2
	20	5.28	0.58	2
	21	5.3	0.42	2
	22	5.33	0.59	2
	23	5.35	0.44	2
	24	5.36	0.33	2
	25	5.37	0.46	2
	26	5.38	0.4	2
	27	5.4	0.42	2
	28	5.41	0.52	2
	29	5.43	0.5	2
	30	5.44	0.58	2
	31	5.45	0.51	2
	32	5.47	0.43	2
	33	5.47	0.33	2
	34	5.48	0.33	2
	35	5.49	0.4	2
	36	5.5	0.36	2
	37	5.51	0.36	2
	38	5.52	0.37	2
	39	5.53	0.44	2
	40	5.55	0.56	2
	41	5.56	0.45	2
	42	5.58	1.03	2
	43	5.62	1.86	2
	44	5.65	1.03	2
	45	5.67	1.74	2
	46	5.69	1.34	2
	47	5.7	1.08	2
	48	5.72	0.67	2
	49	5.73	0.82	2
	50	5.75	1.25	2
	51	5.77	2.05	2
	52	5.81	2.93	2
	53	5.85	1.82	2
	54	5.89	1.48	2
	55	5.91	1.43	2
	56	5.93	1.01	2
	57	5.95	0.85	2
	58	5.96	0.76	2
	59	5.98	0.67	2
	60	6.03	1.99	2
	61	6.05	0.37	2
	62	6.07	0.4	2
	63	6.09	0.49	2
	64	6.1	0.85	2
	65	6.13	1.08	2
	66	6.15	1.09	2
	67	6.19	1.47	2
	68	6.23	1.99	2
	69	6.35	3.61	2
	70	6.41	2.16	2
	71	6.52	5.65	2
	72	6.61	1.98	2
	73	6.61	1.32	2
	74	6.65	0.8	2
	75	6.68	0.76	2
	76	6.7	0.53	2
	77	6.72	0.66	2
	78	6.74	0.68	2
	79	6.76	0.66	2
	80	6.78	0.67	2
	81	6.8	0.73	2
	82	6.82	0.8	2
	83	6.85	0.87	2
	84	6.87	0.8	2
	85	6.9	0.99	2
	86	6.94	1.26	2
	87	6.97	1.31	2
	88	7.01	1.1	2
	89	7.07	3.11	2
	90	7.12	1.73	2
	91	7.16	2.38	2
	92	7.36	4.07	2
	93	7.43	1.44	2
	94	7.49	1.99	2
	95	7.53	1.22	2
	96	7.54	1.92	2
	97	7.59	1.87	2
	98	8.04	0.38	2

