File:              	C:\Qtrac\Data\Daniel M Sørensen\MScan multicentre study\Data from centres\Edmonton\MSCC00204C.QZD
Name:              	CA.EDM.NC.1.2
Protocol:          	MSCAN-R2
Date:              	4/2/20
Start time:        	13:45:15
Age:               	43
Sex:               	M
Temperature:       	33.8
S/R sites:         	CP Kn-TA
NC/disease:        	NC
Operator:          	KJ
Comments:          	Second visit
M-SCAN DATA (7-2.1m)
Scanpts: 35, 40, 518, 539
Stim. (mA)     	Amp. (mV)
MS.1           	21             	9.386
MS.2           	21             	9.364
MS.3           	21             	9.354
MS.4           	21             	9.38
MS.5           	21             	9.334
MS.6           	21             	9.309
MS.7           	21             	9.34
MS.8           	21             	9.315
MS.9           	21             	9.354
MS.10          	21             	9.301
MS.11          	21             	9.356
MS.12          	21             	9.33
MS.13          	21             	9.388
MS.14          	21             	9.374
MS.15          	21             	9.384
MS.16          	21             	9.374
MS.17          	21             	9.356
MS.18          	21             	9.39
MS.19          	21             	9.382
MS.20          	21             	9.37
MS.21          	21             	9.408
MS.22          	21             	9.402
MS.23          	21             	9.481
MS.24          	20.915         	9.408
MS.25          	20.875         	9.404
MS.26          	20.833         	9.43
MS.27          	20.79          	9.41
MS.28          	20.75          	9.438
MS.29          	20.708         	9.465
MS.30          	20.667         	9.489
MS.31          	20.625         	9.426
MS.32          	20.585         	9.424
MS.33          	20.542         	9.442
MS.34          	20.502         	9.396
MS.35          	20.46          	9.442
MS.36          	20.42          	9.44
MS.37          	20.38          	9.495
MS.38          	20.337         	9.428
MS.39          	20.297         	9.477
MS.40          	20.257         	9.416
MS.41          	20.217         	9.428
MS.42          	20.177         	9.44
MS.43          	20.135         	9.45
MS.44          	20.095         	9.45
MS.45          	20.055         	9.36
MS.46          	20.015         	9.318
MS.47          	19.975         	9.438
MS.48          	19.935         	9.42
MS.49          	19.895         	9.324
MS.50          	19.855         	9.354
MS.51          	19.817         	9.35
MS.52          	19.778         	9.374
MS.53          	19.737         	9.364
MS.54          	19.698         	9.412
MS.55          	19.657         	9.517
MS.56          	19.62          	9.428
MS.57          	19.58          	9.571
MS.58          	19.54          	9.44
MS.59          	19.502         	9.408
MS.60          	19.462         	9.414
MS.61          	19.425         	9.44
MS.62          	19.385         	9.32
MS.63          	19.347         	9.307
MS.64          	19.307         	9.39
MS.65          	19.27          	9.346
MS.66          	19.23          	9.4
MS.67          	19.192         	9.15
MS.68          	19.155         	9.356
MS.69          	19.115         	9.181
MS.70          	19.077         	9.177
MS.71          	19.04          	9.269
MS.72          	19.002         	9.112
MS.73          	18.962         	9.311
MS.74          	18.925         	9.13
MS.75          	18.887         	9.098
MS.76          	18.85          	9.011
MS.77          	18.812         	8.965
MS.78          	18.775         	9.104
MS.79          	18.737         	8.921
MS.80          	18.7           	8.776
MS.81          	18.663         	8.79
MS.82          	18.625         	9.09
MS.83          	18.587         	8.766
MS.84          	18.55          	8.901
MS.85          	18.515         	8.941
MS.86          	18.477         	8.774
MS.87          	18.44          	8.737
MS.88          	18.403         	8.915
MS.89          	18.368         	8.818
MS.90          	18.33          	8.721
MS.91          	18.292         	8.826
MS.92          	18.257         	8.703
MS.93          	18.22          	8.838
MS.94          	18.182         	8.625
MS.95          	18.147         	8.57
MS.96          	18.11          	8.752
MS.97          	18.075         	8.488
MS.98          	18.038         	8.512
MS.99          	18.003         	8.504
MS.100         	17.967         	8.449
MS.101         	17.93          	8.613
MS.102         	17.895         	8.423
MS.103         	17.86          	8.6
MS.104         	17.823         	8.625
MS.105         	17.788         	8.524
MS.106         	17.753         	8.395
MS.107         	17.717         	8.407
MS.108         	17.682         	8.31
MS.109         	17.645         	8.457
MS.110         	17.61          	8.401
MS.111         	17.575         	8.318
MS.112         	17.54          	8.125
MS.113         	17.505         	8.157
MS.114         	17.47          	7.998
MS.115         	17.435         	8.256
MS.116         	17.4           	8.141
MS.117         	17.365         	8.067
MS.118         	17.333         	8.133
MS.119         	17.297         	8.214
MS.120         	17.262         	7.805
MS.121         	17.227         	7.952
MS.122         	17.192         	8.016
MS.123         	17.16          	7.99
MS.124         	17.125         	7.73
MS.125         	17.09          	7.964
MS.126         	17.057         	7.692
MS.127         	17.022         	7.946
MS.128         	16.987         	7.877
MS.129         	16.955         	7.712
MS.130         	16.92          	7.702
MS.131         	16.887         	7.581
MS.132         	16.852         	7.728
MS.133         	16.82          	7.593
MS.134         	16.785         	7.533
MS.135         	16.753         	7.378
MS.136         	16.717         	7.561
MS.137         	16.685         	7.585
MS.138         	16.653         	7.43
MS.139         	16.618         	7.34
MS.140         	16.585         	7.229
MS.141         	16.552         	7.098
MS.142         	16.52          	7.273
MS.143         	16.485         	7.432
MS.144         	16.452         	7.277
MS.145         	16.42          	6.967
MS.146         	16.387         	7.166
MS.147         	16.355         	7.074
MS.148         	16.323         	6.888
MS.149         	16.29          	7.162
MS.150         	16.257         	6.876
MS.151         	16.225         	6.949
MS.152         	16.192         	6.602
MS.153         	16.16          	6.905
MS.154         	16.128         	6.755
MS.155         	16.095         	6.719
MS.156         	16.062         	6.288
MS.157         	16.03          	6.377
MS.158         	16             	6.627
MS.159         	15.967         	6.633
MS.160         	15.935         	6.643
MS.161         	15.902         	6.272
MS.162         	15.872         	6.312
MS.163         	15.84          	6.036
MS.164         	15.807         	6.183
MS.165         	15.777         	6.357
MS.166         	15.745         	6.411
MS.167         	15.712         	6.314
MS.168         	15.682         	5.958
MS.169         	15.65          	5.94
MS.170         	15.62          	5.958
MS.171         	15.587         	6.081
MS.172         	15.557         	5.928
MS.173         	15.525         	5.644
MS.174         	15.495         	5.754
MS.175         	15.465         	5.414
MS.176         	15.432         	5.497
MS.177         	15.402         	5.178
MS.178         	15.372         	5.406
MS.179         	15.34          	5.43
MS.180         	15.31          	5.529
MS.181         	15.28          	5.203
MS.182         	15.25          	5.094
MS.183         	15.217         	5.325
MS.184         	15.188         	5.239
MS.185         	15.157         	5.34
MS.186         	15.127         	5.197
MS.187         	15.097         	5.321
MS.188         	15.068         	5.237
MS.189         	15.037         	4.911
MS.190         	15.007         	4.751
MS.191         	14.977         	4.838
MS.192         	14.947         	4.629
MS.193         	14.917         	4.894
MS.194         	14.887         	4.977
MS.195         	14.858         	4.616
MS.196         	14.827         	4.637
MS.197         	14.797         	4.604
MS.198         	14.77          	4.576
MS.199         	14.74          	4.401
MS.200         	14.71          	4.381
MS.201         	14.68          	4.385
MS.202         	14.65          	4.228
MS.203         	14.622         	4.036
MS.204         	14.592         	4.202
MS.205         	14.562         	4.246
MS.206         	14.535         	4.127
MS.207         	14.505         	4.101
MS.208         	14.477         	3.666
MS.209         	14.447         	4.125
MS.210         	14.417         	3.895
MS.211         	14.39          	3.825
MS.212         	14.36          	3.762
MS.213         	14.332         	3.813
MS.214         	14.302         	3.605
MS.215         	14.275         	3.718
MS.216         	14.247         	3.638
MS.217         	14.217         	3.517
MS.218         	14.19          	3.621
MS.219         	14.162         	3.63
MS.220         	14.132         	3.458
MS.221         	14.105         	3.499
MS.222         	14.077         	3.368
MS.223         	14.047         	3.354
MS.224         	14.02          	3.462
MS.225         	13.992         	3.37
MS.226         	13.965         	3.19
MS.227         	13.938         	3.46
MS.228         	13.91          	3.396
MS.229         	13.88          	3.213
MS.230         	13.852         	3.315
MS.231         	13.825         	3.096
MS.232         	13.797         	3.277
MS.233         	13.77          	3.122
MS.234         	13.742         	3.146
MS.235         	13.715         	3.261
MS.236         	13.688         	3.203
MS.237         	13.66          	3.112
MS.238         	13.632         	3.062
MS.239         	13.605         	2.997
MS.240         	13.58          	3.122
MS.241         	13.552         	3.132
MS.242         	13.525         	2.798
MS.243         	13.497         	2.767
MS.244         	13.47          	2.846
MS.245         	13.445         	2.802
MS.246         	13.417         	2.818
MS.247         	13.39          	2.782
MS.248         	13.362         	2.769
MS.249         	13.337         	2.923
MS.250         	13.31          	2.792
MS.251         	13.282         	2.757
MS.252         	13.257         	2.784
MS.253         	13.23          	2.725
MS.254         	13.205         	2.558
MS.255         	13.177         	2.473
MS.256         	13.153         	2.606
MS.257         	13.125         	2.538
MS.258         	13.1           	2.681
MS.259         	13.072         	2.586
MS.260         	13.047         	2.361
MS.261         	13.02          	2.314
MS.262         	12.995         	2.524
MS.263         	12.967         	2.284
MS.264         	12.943         	2.361
MS.265         	12.917         	2.336
MS.266         	12.89          	2.234
MS.267         	12.865         	2.423
MS.268         	12.84          	2.357
MS.269         	12.812         	2.292
MS.270         	12.787         	2.212
MS.271         	12.762         	2.26
MS.272         	12.738         	2.272
MS.273         	12.712         	2.208
MS.274         	12.685         	2.27
MS.275         	12.66          	2.193
MS.276         	12.635         	2.272
MS.277         	12.61          	2.129
MS.278         	12.585         	2.089
MS.279         	12.56          	2.133
MS.280         	12.535         	2.069
MS.281         	12.51          	1.96
MS.282         	12.485         	1.885
MS.283         	12.46          	2.014
MS.284         	12.435         	1.867
MS.285         	12.41          	1.936
MS.286         	12.385         	2.02
MS.287         	12.36          	2.004
MS.288         	12.335         	1.966
MS.289         	12.312         	1.958
MS.290         	12.287         	1.897
MS.291         	12.262         	1.932
MS.292         	12.238         	1.811
MS.293         	12.212         	1.766
MS.294         	12.19          	1.68
MS.295         	12.165         	1.807
MS.296         	12.14          	1.74
MS.297         	12.115         	1.829
MS.298         	12.092         	1.678
MS.299         	12.068         	1.837
MS.300         	12.042         	1.611
MS.301         	12.02          	1.619
MS.302         	11.995         	1.505
MS.303         	11.972         	1.656
MS.304         	11.947         	1.676
MS.305         	11.922         	1.553
MS.306         	11.9           	1.561
MS.307         	11.875         	1.658
MS.308         	11.852         	1.396
MS.309         	11.827         	1.424
MS.310         	11.805         	1.402
MS.311         	11.782         	1.486
MS.312         	11.757         	1.517
MS.313         	11.735         	1.382
MS.314         	11.71          	1.259
MS.315         	11.688         	1.307
MS.316         	11.665         	1.245
MS.317         	11.64          	1.378
MS.318         	11.617         	1.323
MS.319         	11.595         	1.219
MS.320         	11.57          	1.297
MS.321         	11.547         	1.275
MS.322         	11.525         	1.229
MS.323         	11.502         	1.339
MS.324         	11.48          	1.188
MS.325         	11.455         	1.297
MS.326         	11.432         	1.217
MS.327         	11.41          	1.176
MS.328         	11.387         	1.162
MS.329         	11.365         	1.164
MS.330         	11.342         	1.12
MS.331         	11.32          	1.09
MS.332         	11.297         	1.072
MS.333         	11.275         	1.086
MS.334         	11.252         	1.005
MS.335         	11.23          	1.07
MS.336         	11.207         	1.08
MS.337         	11.185         	1.049
MS.338         	11.162         	1.033
MS.339         	11.14          	0.971
MS.340         	11.117         	0.971
MS.341         	11.095         	0.864
MS.342         	11.073         	1.013
MS.343         	11.05          	0.888
MS.344         	11.03          	0.945
MS.345         	11.007         	0.892
MS.346         	10.985         	0.862
MS.347         	10.962         	0.862
MS.348         	10.94          	0.822
MS.349         	10.92          	0.781
MS.350         	10.898         	0.818
MS.351         	10.875         	0.781
MS.352         	10.855         	0.824
MS.353         	10.832         	0.745
MS.354         	10.81          	0.743
MS.355         	10.79          	0.759
MS.356         	10.767         	0.673
MS.357         	10.745         	0.661
MS.358         	10.725         	0.673
MS.359         	10.702         	0.749
MS.360         	10.682         	0.491
MS.361         	10.66          	0.59
MS.362         	10.64          	0.616
MS.363         	10.617         	0.532
MS.364         	10.597         	0.528
MS.365         	10.575         	0.544
MS.366         	10.555         	0.51
MS.367         	10.532         	0.485
MS.368         	10.512         	0.429
MS.369         	10.49          	0.562
MS.370         	10.47          	0.546
MS.371         	10.45          	0.592
MS.372         	10.427         	0.508
MS.373         	10.407         	0.546
MS.374         	10.387         	0.451
MS.375         	10.365         	0.564
MS.376         	10.345         	0.415
MS.377         	10.325         	0.369
MS.378         	10.305         	0.401
MS.379         	10.282         	0.502
MS.380         	10.262         	0.447
MS.381         	10.242         	0.371
MS.382         	10.222         	0.403
MS.383         	10.202         	0.354
MS.384         	10.18          	0.336
MS.385         	10.16          	0.381
MS.386         	10.14          	0.344
MS.387         	10.12          	0.328
MS.388         	10.1           	0.342
MS.389         	10.08          	0.363
MS.390         	10.06          	0.385
MS.391         	10.04          	0.35
MS.392         	10.02          	0.318
MS.393         	10             	0.296
MS.394         	9.98           	0.357
MS.395         	9.96           	0.278
MS.396         	9.94           	0.183
MS.397         	9.92           	0.258
MS.398         	9.9            	0.278
MS.399         	9.88           	0.272
MS.400         	9.86           	0.242
MS.401         	9.84           	0.26
MS.402         	9.82           	0.272
MS.403         	9.802          	0.209
MS.404         	9.782          	0.244
MS.405         	9.762          	0.23
MS.406         	9.742          	0.175
MS.407         	9.722          	0.195
MS.408         	9.705          	0.244
MS.409         	9.685          	0.304
MS.410         	9.665          	0.222
MS.411         	9.645          	0.187
MS.412         	9.627          	0.203
MS.413         	9.608          	0.181
MS.414         	9.587          	0.187
MS.415         	9.57           	0.189
MS.416         	9.55           	0.199
MS.417         	9.53           	0.159
MS.418         	9.512          	0.165
MS.419         	9.492          	0.155
MS.420         	9.472          	0.175
MS.421         	9.455          	0.189
MS.422         	9.435          	0.157
MS.423         	9.417          	0.157
MS.424         	9.398          	0.159
MS.425         	9.38           	0.129
MS.426         	9.36           	0.169
MS.427         	9.342          	0.169
MS.428         	9.323          	0.133
MS.429         	9.305          	0.137
MS.430         	9.285          	0.121
MS.431         	9.267          	0.125
MS.432         	9.25           	0.121
MS.433         	9.23           	0.129
MS.434         	9.212          	0.153
MS.435         	9.193          	0.153
MS.436         	9.175          	0.141
MS.437         	9.158          	0.149
MS.438         	9.137          	0.123
MS.439         	9.12           	0.117
MS.440         	9.102          	0.085
MS.441         	9.085          	0.129
MS.442         	9.065          	0.111
MS.443         	9.047          	0.123
MS.444         	9.03           	0.119
MS.445         	9.012          	0.119
MS.446         	8.992          	0.093
MS.447         	8.975          	0.117
MS.448         	8.957          	0.111
MS.449         	8.94           	0.095
MS.450         	8.922          	0.056
MS.451         	8.905          	0.087
MS.452         	8.887          	0.125
MS.453         	8.867          	0.089
MS.454         	8.85           	0.087
MS.455         	8.832          	0.087
MS.456         	8.815          	0.087
MS.457         	8.797          	0.091
MS.458         	8.78           	0.083
MS.459         	8.762          	0.127
MS.460         	8.745          	0.04
MS.461         	8.727          	0.085
MS.462         	8.71           	0.048
MS.463         	8.693          	0.087
MS.464         	8.675          	0.066
MS.465         	8.658          	0.099
MS.466         	8.64           	0.06
MS.467         	8.622          	0.079
MS.468         	8.608          	0.05
MS.469         	8.59           	0.089
MS.470         	8.573          	0.04
MS.471         	8.555          	0.064
MS.472         	8.537          	0.026
MS.473         	8.52           	0.079
MS.474         	8.505          	0.036
MS.475         	8.488          	0.028
MS.476         	8.47           	0.06
MS.477         	8.452          	0.046
MS.478         	8.435          	0.073
MS.479         	8.42           	0.038
MS.480         	8.403          	0.004
MS.481         	8.385          	0.008
MS.482         	8.37           	0.042
MS.483         	8.352          	0.004
MS.484         	8.335          	0.024
MS.485         	8.32           	0.099
MS.486         	8.302          	0.042
MS.487         	8.285          	0.038
MS.488         	8.27           	0.064
MS.489         	8.252          	0.06
MS.490         	8.235          	0.002
MS.491         	8.22           	0.006
MS.492         	8.202          	0.006
MS.493         	8.188          	0.024
MS.494         	8.17           	0.006
MS.495         	8.155          	0.006
MS.496         	8.137          	0.024
MS.497         	8.122          	0.038
MS.498         	8.105          	0.038
MS.499         	8.09           	0.06
MS.500         	8.073          	0.036
MS.501         	8.057          	0.004
MS.502         	8.04           	0.008
MS.503         	8.025          	0.004
MS.504         	8.007          	0.002
MS.505         	7.992          	0.006
MS.506         	7.977          	0.004
MS.507         	7.96           	0.004
MS.508         	7.945          	0.004
MS.509         	7.93           	0.004
MS.510         	7.912          	0.006
MS.511         	7.898          	0.006
MS.512         	7.882          	0.006
MS.513         	7.865          	0.004
MS.514         	7.85           	0.004
MS.515         	7.835          	0.006
MS.516         	7.817          	0.006
MS.517         	7.802          	0.004
MS.518         	7.787          	0.006
MS.519         	7.773          	0.004
MS.520         	7.757          	0.006
MS.521         	7.74           	0.006
MS.522         	7.725          	0.004
MS.523         	7.71           	0.006
MS.524         	7.695          	0.004
MS.525         	7.68           	0.002
MS.526         	7.665          	0.006
MS.527         	7.648          	0.004
MS.528         	7.632          	0.004
MS.529         	7.617          	0.004
MS.530         	7.602          	0.006
MS.531         	7.587          	0.004
MS.532         	7.572          	0.004
MS.533         	7.557          	0.008
MS.534         	7.543          	0.004
MS.535         	7.527          	0.006
MS.536         	7.512          	0.008
MS.537         	7.497          	0.004
MS.538         	7.482          	0.004
MS.539         	7.467          	0.002
DERIVED EXCITABILITY VARIABLES
Program = QTracP 3/4/2020
Threshold method = 6 (optimised for CAP, using data for present condition only)
SR method = 1 (using actual data values)
6.                 	0.000               	Peak response\(mV)
9.                 	33.8                	Temperature ( C)
17.                	43                  	Age (years)
18.                	1                   	Sex (M=1, F=2)

EXTRA VARIABLES

MScPeak(mV) = 9.36
MScS5(mA) = 10.39
MScS50(mA) = 14.92
MScS95(mA) = 18.55
MScNSteps = 1
MScSteps(%) = 2
MScStepMax(%) = 2
MScD50 = 58
MScSlope = 4.38
MSFPeakAmp(mV) = 9.44
MSFNUnits = 141
MSFMeanUnitAmp(uV) = 67
MSFHuntTime(m) = 2.95
MSFError(%) = 2.95
MSFNLarge = 49.87
MSFMedianAmp(%) = 0.679
MSFMedianAmp(mV) = 0.0642
MSFHalfAmpAmp(%) = 0.781
MSFHalfAmpAmp(mV) = 0.0737
MSFLargestAmp(%) = 1.36
MSFLargestAmp(mV) = 0.128
MSFMeanRS(%) = 2.01
MSFOpts = 10106121
MScDuration(min) = 4.9
MSFTraces = 505
MSFSizeLimit(uV) = 23.6
MSFLimitType = 1
MSFSmallestAmp(uV) = 24.7

EXTRA WAVEFORMS


!MScan Model
!141
	1	8.24	0.26	2
	2	8.76	0.56	2
	3	9.06	0.38	2
	4	9.42	0.54	2
	5	9.57	0.28	2
	6	9.72	0.4	2
	7	9.85	0.36	2
	8	9.96	0.42	2
	9	10.07	0.42	2
	10	10.17	0.45	2
	11	10.31	0.65	2
	12	10.44	0.63	2
	13	10.52	0.52	2
	14	10.6	0.51	2
	15	10.66	0.43	2
	16	10.71	0.35	2
	17	10.76	0.33	2
	18	10.8	0.29	2
	19	10.84	0.31	2
	20	10.88	0.28	2
	21	10.91	0.27	2
	22	10.94	0.26	2
	23	10.97	0.29	2
	24	11.02	0.43	2
	25	11.07	0.51	2
	26	11.15	0.55	2
	27	11.21	0.45	2
	28	11.26	0.35	2
	29	11.31	0.36	2
	30	11.37	0.43	2
	31	11.43	0.45	2
	32	11.49	0.48	2
	33	11.55	0.51	2
	34	11.62	0.51	2
	35	11.68	0.56	2
	36	11.75	0.59	2
	37	11.81	0.48	2
	38	11.87	0.5	2
	39	11.93	0.51	2
	40	11.99	0.54	2
	41	12.05	0.61	2
	42	12.12	0.61	2
	43	12.19	0.6	2
	44	12.25	0.61	2
	45	12.31	0.55	2
	46	12.37	0.53	2
	47	12.43	0.54	2
	48	12.5	0.54	2
	49	12.58	0.63	2
	50	12.66	0.68	2
	51	12.74	0.7	2
	52	12.81	0.6	2
	53	12.87	0.66	2
	54	12.94	0.63	2
	55	13	0.48	2.4
	56	13.07	0.8	2
	57	13.14	0.62	2
	58	13.2	0.65	2
	59	13.27	0.65	2
	60	13.33	0.65	2
	61	13.4	0.7	2
	62	13.47	0.61	2
	63	13.54	0.87	2
	64	13.62	0.72	2
	65	13.68	0.69	2
	66	13.75	0.71	2
	67	13.82	0.69	2
	68	13.88	0.68	2
	69	14.01	0.79	2
	70	14.08	0.78	2
	71	14.14	0.69	2
	72	14.19	0.7	2
	73	14.23	0.49	2
	74	14.27	0.51	2
	75	14.3	0.55	2
	76	14.34	0.53	2
	77	14.38	0.56	2
	78	14.41	0.57	2
	79	14.45	0.59	2
	80	14.49	0.6	2
	81	14.51	0.75	2
	82	14.52	0.64	2
	83	14.56	0.65	2
	84	14.6	0.69	2
	85	14.63	0.67	2
	86	14.67	0.71	2
	87	14.71	0.72	2
	88	14.75	0.71	2
	89	14.8	0.88	2
	90	14.86	1.04	2
	91	14.92	1	2
	92	14.98	0.97	2
	93	15.03	1	2
	94	15.09	0.86	2
	95	15.15	1.36	2
	96	15.21	1.12	2
	97	15.27	1.15	2
	98	15.34	0.75	2
	99	15.4	1.22	2
	100	15.4	0.37	2
	101	15.48	1.23	2.4
	102	15.55	1.18	2
	103	15.61	1.09	2
	104	15.68	1.1	2
	105	15.75	1.14	2
	106	15.81	1.15	2
	107	15.88	1.21	2
	108	15.95	1.2	2
	109	16.02	1.18	2
	110	16.09	1.16	2
	111	16.16	1.1	2
	112	16.23	0.95	2
	113	16.29	0.87	2
	114	16.36	0.97	2
	115	16.43	1.05	2
	116	16.5	1.03	2
	117	16.57	0.88	2
	118	16.63	0.8	2
	119	16.7	0.82	2
	120	16.77	0.85	2
	121	16.84	0.83	2
	122	16.91	0.82	2
	123	16.99	0.78	2
	124	17.06	0.69	2
	125	17.13	0.73	2
	126	17.2	0.71	2
	127	17.27	0.77	2
	128	17.36	0.83	2
	129	17.47	0.95	2
	130	17.57	0.86	2
	131	17.68	0.87	2
	132	17.8	0.95	2
	133	17.93	0.97	2
	134	18.1	1.14	2
	135	18.57	0.79	2
	136	18.7	1.08	2
	137	18.85	0.93	2
	138	19.02	1.21	2
	139	19.02	1.01	2
	140	19.18	1.05	2
	141	19.33	1.03	2

